; From SOPRA S.A. http://www.sopra-sa.com/indices.htm
; Filename    Symbol               Range (nm)     Description
; ASI         a-Si                250      840    Amorphous Silicon
; lambda/nm       n         k
240.00	1.68440000	3.33120000
242.00	1.73170000	3.35700000
244.00	1.78010000	3.37770000
246.00	1.83180000	3.40670000
248.00	1.87740000	3.42190000
250.00	1.92360000	3.44580000
252.00	1.97170000	3.47210000
254.00	2.01000000	3.49650000
256.00	2.06100000	3.52250000
258.00	2.10720000	3.53820000
260.00	2.16310000	3.55970000
262.00	2.20990000	3.58310000
264.00	2.25710000	3.59910000
266.00	2.30940000	3.61910000
268.00	2.36270000	3.63280000
270.00	2.41480000	3.65110000
272.00	2.46360000	3.66000000
274.00	2.51630000	3.67550000
276.00	2.57230000	3.68990000
278.00	2.63130000	3.70610000
280.00	2.68160000	3.71210000
282.00	2.73910000	3.72200000
284.00	2.79930000	3.73030000
286.00	2.85290000	3.73640000
288.00	2.91300000	3.73870000
290.00	2.96840000	3.74390000
292.00	3.02690000	3.74740000
294.00	3.08260000	3.74600000
296.00	3.14190000	3.74660000
298.00	3.20320000	3.74440000
300.00	3.26140000	3.73850000
302.00	3.32368100	3.73328800
304.00	3.38310000	3.72650000
306.00	3.44091900	3.71806200
308.00	3.49840000	3.70790000
310.00	3.55817500	3.69581900
312.00	3.61740000	3.68210000
314.00	3.67342500	3.66689300
316.00	3.72830000	3.65040000
318.00	3.78320600	3.63324400
320.00	3.83810000	3.61430000
322.00	3.89345000	3.59215600
324.00	3.94890000	3.56830000
326.00	4.00530600	3.54383100
328.00	4.05950000	3.51850000
330.00	4.10636900	3.49286200
332.00	4.15260000	3.46560000
334.00	4.20565000	3.43550000
336.00	4.25810000	3.40280000
338.00	4.30354400	3.36600000
340.00	4.34640000	3.32910000
342.00	4.38909300	3.29720000
344.00	4.43120000	3.26550000
346.00	4.47343100	3.23016900
348.00	4.51480000	3.19340000
350.00	4.55450000	3.15630600
352.00	4.59270000	3.11830000
354.00	4.62933100	3.07888700
356.00	4.66430000	3.03890000
358.00	4.69734300	2.99936200
360.00	4.72890000	2.95920000
362.00	4.75954300	2.91710700
364.00	4.78860000	2.87480000
366.00	4.81519400	2.83415000
368.00	4.84050000	2.79340000
370.00	4.86582500	2.75076200
372.00	4.88990000	2.70820000
374.00	4.91163800	2.66750000
376.00	4.93180000	2.62740000
378.00	4.95060000	2.58738700
380.00	4.96860000	2.54700000
382.00	4.98696900	2.50501900
384.00	5.00410000	2.46320000
386.00	5.01811800	2.42345600
388.00	5.03100000	2.38410000
390.00	5.04462500	2.34344400
392.00	5.05740000	2.30340000
394.00	5.06799400	2.26598700
396.00	5.07750000	2.22920000
398.00	5.08692500	2.19104400
400.00	5.09520000	2.15350000
402.00	5.10127500	2.11831900
404.00	5.10610000	2.08420000
406.00	5.10995000	2.05058100
408.00	5.11380000	2.01700000
410.00	5.11908700	1.98246900
412.00	5.12470000	1.94800000
414.00	5.13046300	1.91446200
416.00	5.13500000	1.88130000
418.00	5.13723800	1.84831200
420.00	5.13610000	1.81530000
422.00	5.15986300	1.79772600
424.00	5.17548600	1.77601900
426.00	5.18402600	1.75078900
428.00	5.18654500	1.72264600
430.00	5.18410000	1.69220000
432.00	5.17775200	1.66006200
434.00	5.16855800	1.62684300
436.00	5.15757800	1.59315300
438.00	5.14587300	1.55960200
440.00	5.13450000	1.52680000
442.00	5.13010300	1.49853300
444.00	5.12676100	1.47144200
446.00	5.12413800	1.44534500
448.00	5.12189700	1.42005900
450.00	5.11970000	1.39540000
452.00	5.11579300	1.37051600
454.00	5.11161300	1.34606000
456.00	5.10717500	1.32201600
458.00	5.10249800	1.29836800
460.00	5.09760000	1.27510000
462.00	5.09255200	1.25205500
464.00	5.08730400	1.22939400
466.00	5.08186000	1.20713400
468.00	5.07622400	1.18529700
470.00	5.07040000	1.16390000
472.00	5.06425500	1.14309800
474.00	5.05796300	1.12274100
476.00	5.05156500	1.10281500
478.00	5.04509800	1.08330600
480.00	5.03860000	1.06420000
482.00	5.03213600	1.04554900
484.00	5.02571200	1.02725400
486.00	5.01936000	1.00928600
488.00	5.01311200	0.99161100
490.00	5.00700000	0.97420000
492.00	5.00155200	0.95699200
494.00	4.99618000	0.93999200
496.00	4.99079200	0.92317600
498.00	4.98529600	0.90652000
500.00	4.97960000	0.89000000
502.00	4.97309000	0.87339400
504.00	4.96632700	0.85692500
506.00	4.95934900	0.84061900
508.00	4.95219300	0.82450200
510.00	4.94490000	0.80860000
512.00	4.93767600	0.79298900
514.00	4.93034800	0.77763000
516.00	4.92291200	0.76253800
518.00	4.91536400	0.74772300
520.00	4.90770000	0.73320000
522.00	4.89986800	0.71907300
524.00	4.89192400	0.70524100
526.00	4.88387600	0.69169100
528.00	4.87573200	0.67841400
530.00	4.86750000	0.66540000
532.00	4.85942500	0.65347300
534.00	4.85121800	0.64157900
536.00	4.84283000	0.62949800
538.00	4.83420800	0.61701100
540.00	4.82530000	0.60390000
542.00	4.81383900	0.58745600
544.00	4.80254600	0.57057000
546.00	4.79192300	0.55364700
548.00	4.78247300	0.53708900
550.00	4.77470000	0.52130000
552.00	4.77425000	0.50843400
554.00	4.77519700	0.49670500
556.00	4.77676000	0.48607900
558.00	4.77815400	0.47652200
560.00	4.77860000	0.46800000
562.00	4.77287900	0.46149200
564.00	4.76575100	0.45569600
566.00	4.75754500	0.45032400
568.00	4.74858600	0.44508800
570.00	4.73920000	0.43970000
572.00	4.73081500	0.43233300
574.00	4.72238200	0.42462200
576.00	4.71395100	0.41666600
578.00	4.70557300	0.40855900
580.00	4.69730000	0.40040000
582.00	4.68943600	0.39262100
584.00	4.68171500	0.38489800
586.00	4.67412800	0.37724500
588.00	4.66666000	0.36967500
590.00	4.65930000	0.36220000
592.00	4.65213200	0.35475900
594.00	4.64502400	0.34745800
596.00	4.63794000	0.34032600
598.00	4.63084400	0.33339700
600.00	4.62370000	0.32670000
602.00	4.61597000	0.32075700
604.00	4.60824500	0.31498700
606.00	4.60061500	0.30929800
608.00	4.59317100	0.30359900
610.00	4.58600000	0.29780000
612.00	4.57995200	0.29109900
614.00	4.57416800	0.28429100
616.00	4.56854800	0.27746500
618.00	4.56299200	0.27070600
620.00	4.55740000	0.26410000
622.00	4.55103200	0.25794600
624.00	4.54458800	0.25206500
626.00	4.53812800	0.24649100
628.00	4.53171200	0.24125800
630.00	4.52540000	0.23640000
632.00	4.51979300	0.23286500
634.00	4.51427500	0.22954200
636.00	4.50877000	0.22623800
638.00	4.50320300	0.22275500
640.00	4.49750000	0.21890000
642.00	4.49103700	0.21292500
644.00	4.48442500	0.20657400
646.00	4.47772300	0.20004100
648.00	4.47099400	0.19351900
650.00	4.46430000	0.18720000
652.00	4.45797100	0.18231000
654.00	4.45173100	0.17775100
656.00	4.44557700	0.17345700
658.00	4.43950200	0.16936200
660.00	4.43350000	0.16540000
662.00	4.42760100	0.16118000
664.00	4.42175700	0.15704400
666.00	4.41595100	0.15300800
668.00	4.41017100	0.14908800
670.00	4.40440000	0.14530000
672.00	4.39853600	0.14181700
674.00	4.39267600	0.13845800
676.00	4.38682800	0.13520200
678.00	4.38100000	0.13202300
680.00	4.37520000	0.12890000
682.00	4.36945500	0.12570300
684.00	4.36375000	0.12254200
686.00	4.35808700	0.11941800
688.00	4.35246800	0.11633700
690.00	4.34690000	0.11330000
692.00	4.34141200	0.11031400
694.00	4.33597200	0.10737900
696.00	4.33057600	0.10449700
698.00	4.32522000	0.10167000
700.00	4.31990000	0.09890000
702.00	4.31448700	0.09592200
704.00	4.30913400	0.09307300
706.00	4.30386700	0.09042300
708.00	4.29871300	0.08804200
710.00	4.29370000	0.08600000
712.00	4.28912400	0.08539600
714.00	4.28467600	0.08501200
716.00	4.28031600	0.08466000
718.00	4.27600400	0.08415200
720.00	4.27170000	0.08330000
722.00	4.26698300	0.08049200
724.00	4.26229000	0.07732000
726.00	4.25767400	0.07395200
728.00	4.25319300	0.07055600
730.00	4.24890000	0.06730000
732.00	4.24548100	0.06522200
734.00	4.24220500	0.06340300
736.00	4.23896700	0.06179300
738.00	4.23566700	0.06034200
740.00	4.23220000	0.05900000
742.00	4.22813000	0.05760000
744.00	4.22377300	0.05624000
746.00	4.21911100	0.05490000
748.00	4.21412600	0.05356000
750.00	4.20880000	0.05220000
752.00	4.20261100	0.05059500
754.00	4.19616900	0.04898200
756.00	4.18958200	0.04739000
758.00	4.18295700	0.04585300
760.00	4.17640000	0.04440000
762.00	4.17023400	0.04317200
764.00	4.16429700	0.04206400
766.00	4.15864300	0.04108000
768.00	4.15332600	0.04022400
770.00	4.14840000	0.03950000
772.00	4.14439100	0.03918400
774.00	4.14076100	0.03894000
776.00	4.13744600	0.03870400
778.00	4.13438000	0.03841200
780.00	4.13150000	0.03800000
782.00	4.12865300	0.03687600
784.00	4.12588200	0.03563600
786.00	4.12314600	0.03434800
788.00	4.12039900	0.03308000
790.00	4.11760000	0.03190000
792.00	4.11443300	0.03131800
794.00	4.11119400	0.03084900
796.00	4.10790900	0.03045100
798.00	4.10460300	0.03008200
800.00	4.10130000	0.02970000
802.00	4.09808900	0.02891600
804.00	4.09491400	0.02812000
806.00	4.09178500	0.02735600
808.00	4.08871100	0.02666800
810.00	4.08570000	0.02610000
812.00	4.08284100	0.02615700
814.00	4.08004200	0.02630600
816.00	4.07729300	0.02647800
818.00	4.07458300	0.02659900
820.00	4.07190000	0.02660000
822.00	4.06919100	0.02584600
824.00	4.06649700	0.02496900
826.00	4.06381800	0.02403900
828.00	4.06115200	0.02312600
830.00	4.05850000	0.02230000
832.00	4.05585900	0.02163000
834.00	4.05322900	0.02118500
836.00	4.05061100	0.02103500
838.00	4.04800100	0.02125000
840.00	4.04540000	0.02190000
