; From SOPRA S.A. http://www.sopra-sa.com/indices.htm
; Filename    Symbol               Range (nm)     Description
; AGAINP3     (Al.3Ga.7)0.5In0.5P 225     1000    Aluminum Gallium Indium Phosphide (30% Al)
; lambda/nm       n         k
225.00 	1.55498900 	2.66342800 
227.50 	1.59592400 	2.71658100 
230.00 	1.64198600 	2.77248500 
232.50 	1.69434700 	2.83096800 
235.00 	1.75440000 	2.89160400 
237.50 	1.82375800 	2.95357600 
240.00 	1.90419600 	3.01550000 
242.50 	1.99750700 	3.07522100 
245.00 	2.10522700 	3.12959200 
247.50 	2.22814300 	3.17433500 
250.00 	2.36561100 	3.20412000 
252.50 	2.51475600 	3.21311300 
255.00 	2.66988800 	3.19610200 
257.50 	2.82267600 	3.15014300 
260.00 	2.96347500 	3.07607400 
262.50 	3.08340000 	2.97913400 
265.00 	3.17688600 	2.86773600 
267.50 	3.24253700 	2.75135100 
270.00 	3.28270400 	2.63827800 
272.50 	3.30203100 	2.53436200 
275.00 	3.30590800 	2.44281400 
277.50 	3.29937500 	2.36469600 
280.00 	3.28658600 	2.29966000 
282.50 	3.27069500 	2.24656200 
285.00 	3.25395100 	2.20394000 
287.50 	3.23787800 	2.17027400 
290.00 	3.22346100 	2.14414300 
292.50 	3.21129900 	2.12429400 
295.00 	3.20172800 	2.10965300 
297.50 	3.19491400 	2.09932600 
300.00 	3.19091300 	2.09257600 
302.50 	3.18972100 	2.08879900 
305.00 	3.19130400 	2.08750800 
307.50 	3.19561400 	2.08830800 
310.00 	3.20261200 	2.09087800 
312.50 	3.21227800 	2.09495300 
315.00 	3.22462200 	2.10030000 
317.50 	3.23962500 	2.10684200 
320.00 	3.25715200 	2.11487800 
322.50 	3.27788000 	2.12299900 
325.00 	3.30162100 	2.13168300 
327.50 	3.32857600 	2.14068700 
330.00 	3.35896200 	2.14973400 
332.50 	3.39301500 	2.15847900 
335.00 	3.43097900 	2.16648800 
337.50 	3.47307700 	2.17321800 
340.00 	3.51948200 	2.17800300 
342.50 	3.57026600 	2.18005100 
345.00 	3.62535100 	2.17845000 
347.50 	3.68445000 	2.17220100 
350.00 	3.74701500 	2.16027200 
352.50 	3.81219500 	2.14167800 
355.00 	3.87884000 	2.11559300 
357.50 	3.94552600 	2.08145200 
360.00 	4.01064100 	2.03905900 
362.50 	4.07251400 	1.98865000 
365.00 	4.12956400 	1.93090300 
367.50 	4.18043700 	1.86689500 
370.00 	4.22413100 	1.79799300 
372.50 	4.26004900 	1.72572200 
375.00 	4.28800700 	1.65162500 
377.50 	4.30818800 	1.57714200 
380.00 	4.32106600 	1.50352500 
382.50 	4.32731500 	1.43179100 
385.00 	4.32772100 	1.36270000 
387.50 	4.32311200 	1.29677800 
390.00 	4.31429700 	1.23439800 
392.50 	4.30203800 	1.17569500 
395.00 	4.28702000 	1.12070700 
397.50 	4.26984400 	1.06937300 
400.00 	4.25102500 	1.02156400 
402.50 	4.23100100 	0.97710800 
405.00 	4.21013600 	0.93580800 
407.50 	4.18872900 	0.89745700 
410.00 	4.16702200 	0.86184000 
412.50 	4.14521200 	0.82875400 
415.00 	4.12345400 	0.79799700 
417.50 	4.10187100 	0.76938100 
420.00 	4.08056100 	0.74273000 
422.50 	4.05959400 	0.71788000 
425.00 	4.03905400 	0.69469500 
427.50 	4.01873600 	0.67292700 
430.00 	3.99853800 	0.65240100 
432.50 	3.97941900 	0.63340600 
435.00 	3.96076300 	0.61556000 
437.50 	3.94261300 	0.59878500 
440.00 	3.92497000 	0.58299500 
442.50 	3.90783300 	0.56811100 
445.00 	3.89119400 	0.55406000 
447.50 	3.87504700 	0.54077700 
450.00 	3.85937900 	0.52820100 
452.50 	3.84417900 	0.51627700 
455.00 	3.82944300 	0.50496200 
457.50 	3.81515400 	0.49420600 
460.00 	3.80129800 	0.48396800 
462.50 	3.78786400 	0.47420900 
465.00 	3.77483800 	0.46489600 
467.50 	3.76220900 	0.45599500 
470.00 	3.74996100 	0.44747800 
472.50 	3.73808400 	0.43931900 
475.00 	3.72656300 	0.43149000 
477.50 	3.71538900 	0.42397000 
480.00 	3.70455000 	0.41673600 
482.50 	3.69403200 	0.40977000 
485.00 	3.68382600 	0.40305300 
487.50 	3.67392100 	0.39656900 
490.00 	3.66430600 	0.39030000 
492.50 	3.65497300 	0.38423300 
495.00 	3.64591000 	0.37835300 
497.50 	3.63710800 	0.37264600 
500.00 	3.62855900 	0.36710300 
502.50 	3.62025400 	0.36171000 
505.00 	3.61218300 	0.35645800 
507.50 	3.60434000 	0.35133500 
510.00 	3.59671700 	0.34633200 
512.50 	3.58930500 	0.34144100 
515.00 	3.58209500 	0.33665100 
517.50 	3.57508100 	0.33195600 
520.00 	3.56826000 	0.32734700 
522.50 	3.56162100 	0.32281700 
525.00 	3.55515800 	0.31835800 
527.50 	3.54886500 	0.31396400 
530.00 	3.54273500 	0.30962800 
532.50 	3.53676100 	0.30534100 
535.00 	3.53093800 	0.30109900 
537.50 	3.52525900 	0.29689400 
540.00 	3.51971800 	0.29272100 
542.50 	3.51430900 	0.28857300 
545.00 	3.50902400 	0.28444300 
547.50 	3.50385800 	0.28032500 
550.00 	3.49880300 	0.27621200 
552.50 	3.49385200 	0.27209900 
555.00 	3.48899800 	0.26797900 
557.50 	3.48423200 	0.26384500 
560.00 	3.47954700 	0.25968800 
562.50 	3.47493000 	0.25550400 
565.00 	3.47037200 	0.25128400 
567.50 	3.46585900 	0.24702100 
570.00 	3.46137800 	0.24270800 
572.50 	3.45691000 	0.23833800 
575.00 	3.45243700 	0.23390600 
577.50 	3.44793100 	0.22940600 
580.00 	3.44336600 	0.22484100 
582.50 	3.43870700 	0.22021400 
585.00 	3.43391400 	0.21554000 
587.50 	3.42894700 	0.21084900 
590.00 	3.42376900 	0.20618700 
592.50 	3.41835500 	0.20162100 
595.00 	3.41271000 	0.19723000 
597.50 	3.40687100 	0.19309300 
600.00 	3.40090800 	0.18926300 
602.50 	3.39489800 	0.18576100 
605.00 	3.38891600 	0.18257600 
607.50 	3.38301500 	0.17967500 
610.00 	3.37722900 	0.17702200 
612.50 	3.37158000 	0.17457700 
615.00 	3.36607300 	0.17230800 
617.50 	3.36071000 	0.17018700 
620.00 	3.35548800 	0.16819200 
622.50 	3.35040100 	0.16630400 
625.00 	3.34544600 	0.16450800 
627.50 	3.34061400 	0.16279300 
630.00 	3.33590000 	0.16114900 
632.50 	3.33129900 	0.15956900 
635.00 	3.32680400 	0.15804500 
637.50 	3.32241100 	0.15657300 
640.00 	3.31811500 	0.15514800 
642.50 	3.31391100 	0.15376600 
645.00 	3.30979400 	0.15242400 
647.50 	3.30576200 	0.15111800 
650.00 	3.30181200 	0.14984700 
652.50 	3.29794000 	0.14860800 
655.00 	3.29414200 	0.14739900 
657.50 	3.29041700 	0.14621900 
660.00 	3.28676000 	0.14506700 
662.50 	3.28317100 	0.14394000 
665.00 	3.27964600 	0.14283700 
667.50 	3.27618400 	0.14175800 
670.00 	3.27278200 	0.14070000 
672.50 	3.26943900 	0.13966500 
675.00 	3.26615100 	0.13865000 
677.50 	3.26291900 	0.13765400 
680.00 	3.25974000 	0.13667800 
682.50 	3.25661300 	0.13571900 
685.00 	3.25353700 	0.13477800 
687.50 	3.25050900 	0.13385500 
690.00 	3.24752900 	0.13294700 
692.50 	3.24459400 	0.13205600 
695.00 	3.24170500 	0.13117900 
697.50 	3.23886100 	0.13031700 
700.00 	3.23605800 	0.12947100 
702.50 	3.23329800 	0.12863800 
705.00 	3.23057900 	0.12781900 
707.50 	3.22789900 	0.12701300 
710.00 	3.22525700 	0.12622000 
712.50 	3.22265400 	0.12543900 
715.00 	3.22008800 	0.12467000 
717.50 	3.21755700 	0.12391300 
720.00 	3.21506200 	0.12316800 
722.50 	3.21260200 	0.12243400 
725.00 	3.21017700 	0.12171100 
727.50 	3.20778400 	0.12099800 
730.00 	3.20542300 	0.12029600 
732.50 	3.20309400 	0.11960500 
735.00 	3.20079600 	0.11892300 
737.50 	3.19852800 	0.11825100 
740.00 	3.19629000 	0.11758800 
742.50 	3.19408200 	0.11693400 
745.00 	3.19190200 	0.11629000 
747.50 	3.18975000 	0.11565400 
750.00 	3.18762600 	0.11502700 
752.50 	3.18552800 	0.11440800 
755.00 	3.18345600 	0.11379800 
757.50 	3.18141100 	0.11319500 
760.00 	3.17939100 	0.11260100 
762.50 	3.17739700 	0.11201500 
765.00 	3.17542600 	0.11143600 
767.50 	3.17348000 	0.11086400 
770.00 	3.17155700 	0.11030000 
772.50 	3.16965700 	0.10974200 
775.00 	3.16778000 	0.10919200 
777.50 	3.16592500 	0.10864800 
780.00 	3.16409200 	0.10811200 
782.50 	3.16228100 	0.10758100 
785.00 	3.16049000 	0.10705800 
787.50 	3.15872100 	0.10654000 
790.00 	3.15697300 	0.10602900 
792.50 	3.15524400 	0.10552400 
795.00 	3.15353500 	0.10502500 
797.50 	3.15184600 	0.10453100 
800.00 	3.15017600 	0.10404400 
802.50 	3.14852400 	0.10356300 
805.00 	3.14689000 	0.10308600 
807.50 	3.14527500 	0.10261500 
810.00 	3.14367800 	0.10214900 
812.50 	3.14209800 	0.10168900 
815.00 	3.14053600 	0.10123400 
817.50 	3.13899000 	0.10078400 
820.00 	3.13746200 	0.10033900 
822.50 	3.13595000 	0.09989900 
825.00 	3.13445400 	0.09946300 
827.50 	3.13297400 	0.09903300 
830.00 	3.13151000 	0.09860700 
832.50 	3.13006100 	0.09818500 
835.00 	3.12862800 	0.09776800 
837.50 	3.12721000 	0.09735600 
840.00 	3.12580500 	0.09694700 
842.50 	3.12441500 	0.09654300 
845.00 	3.12304100 	0.09614400 
847.50 	3.12168000 	0.09574800 
850.00 	3.12033300 	0.09535700 
852.50 	3.11900000 	0.09496900 
855.00 	3.11768100 	0.09458500 
857.50 	3.11637400 	0.09420600 
860.00 	3.11508100 	0.09383000 
862.50 	3.11380000 	0.09345700 
865.00 	3.11253300 	0.09308900 
867.50 	3.11127800 	0.09272500 
870.00 	3.11003500 	0.09236300 
872.50 	3.10880400 	0.09200500 
875.00 	3.10758600 	0.09165200 
877.50 	3.10637900 	0.09130100 
880.00 	3.10518400 	0.09095300 
882.50 	3.10400100 	0.09060900 
885.00 	3.10282900 	0.09026800 
887.50 	3.10166800 	0.08993100 
890.00 	3.10051800 	0.08959600 
892.50 	3.09938000 	0.08926500 
895.00 	3.09825100 	0.08893600 
897.50 	3.09713400 	0.08861200 
900.00 	3.09602700 	0.08828900 
902.50 	3.09493000 	0.08797000 
905.00 	3.09384300 	0.08765300 
907.50 	3.09276600 	0.08734000 
910.00 	3.09170000 	0.08703000 
912.50 	3.09064200 	0.08672100 
915.00 	3.08959600 	0.08641600 
917.50 	3.08855800 	0.08611400 
920.00 	3.08752900 	0.08581500 
922.50 	3.08651000 	0.08551700 
925.00 	3.08550000 	0.08522300 
927.50 	3.08450000 	0.08493100 
930.00 	3.08350800 	0.08464200 
932.50 	3.08252500 	0.08435500 
935.00 	3.08155100 	0.08407100 
937.50 	3.08058500 	0.08378900 
940.00 	3.07962800 	0.08350900 
942.50 	3.07867900 	0.08323100 
945.00 	3.07773900 	0.08295600 
947.50 	3.07680600 	0.08268400 
950.00 	3.07588100 	0.08241300 
952.50 	3.07496500 	0.08214500 
955.00 	3.07405600 	0.08188000 
957.50 	3.07315600 	0.08161600 
960.00 	3.07226300 	0.08135400 
962.50 	3.07137800 	0.08109500 
965.00 	3.07049900 	0.08083900 
967.50 	3.06962900 	0.08058300 
970.00 	3.06876600 	0.08033000 
972.50 	3.06790900 	0.08007900 
975.00 	3.06706100 	0.07983000 
977.50 	3.06621900 	0.07958200 
980.00 	3.06538400 	0.07933700 
982.50 	3.06455600 	0.07909400 
985.00 	3.06373500 	0.07885300 
987.50 	3.06292100 	0.07861400 
990.00 	3.06211300 	0.07837600 
992.50 	3.06131200 	0.07814000 
995.00 	3.06051700 	0.07790600 
997.50 	3.05972800 	0.07767400 
1000.00 	3.05894700 	0.07744400 
