; From SOPRA S.A. http://www.sopra-sa.com/indices.htm
; Filename    Symbol               Range (nm)     Description
; ALAS098T    AlAs                275      987    Aluminum Arsenide (Temp: 98 C)
; lambda/nm       n         k
275.83	4.42150000	2.61150000
276.75	4.40980000	2.55960000
277.68	4.39530000	2.51170000
278.62	4.37940000	2.47120000
279.56	4.35830000	2.43950000
280.51	4.32750000	2.41420000
281.46	4.29340000	2.39210000
282.43	4.26190000	2.37190000
283.39	4.23670000	2.35380000
284.37	4.22030000	2.33900000
285.35	4.20790000	2.32850000
286.34	4.19790000	2.32110000
287.34	4.19330000	2.31440000
288.34	4.19180000	2.30980000
289.35	4.18950000	2.30890000
290.36	4.18990000	2.31090000
291.39	4.19650000	2.31500000
292.42	4.20620000	2.32050000
293.46	4.21740000	2.32680000
294.50	4.23090000	2.33300000
295.55	4.24730000	2.33940000
296.62	4.26780000	2.34700000
297.68	4.29370000	2.35520000
298.76	4.32450000	2.36230000
299.84	4.35980000	2.36620000
300.93	4.39990000	2.36580000
302.03	4.44310000	2.36180000
303.14	4.48860000	2.35490000
304.26	4.53640000	2.34430000
305.38	4.58530000	2.32810000
306.51	4.63540000	2.30560000
307.66	4.68910000	2.27820000
308.80	4.74540000	2.24650000
309.96	4.79770000	2.21140000
311.13	4.84530000	2.17240000
312.31	4.89500000	2.12690000
313.49	4.94900000	2.07520000
314.68	5.00560000	2.01900000
315.89	5.06030000	1.95920000
317.10	5.11100000	1.89490000
318.32	5.15750000	1.82190000
319.55	5.19720000	1.73970000
320.79	5.22670000	1.65350000
322.04	5.24250000	1.56630000
323.30	5.24940000	1.46960000
324.57	5.25490000	1.35750000
325.85	5.25110000	1.24690000
327.14	5.22830000	1.15160000
328.44	5.18850000	1.07110000
329.75	5.13650000	1.00370000
331.07	5.07680000	0.94826000
332.40	5.01360000	0.90330000
333.74	4.94970000	0.86854000
335.10	4.88650000	0.84064000
336.46	4.83410000	0.80607000
337.83	4.79720000	0.76029000
339.22	4.76280000	0.71747000
340.62	4.72670000	0.68191000
342.03	4.69360000	0.64908000
343.45	4.66220000	0.61916000
344.88	4.63040000	0.59353000
346.33	4.59880000	0.57048000
347.78	4.56840000	0.54712000
349.25	4.53790000	0.52503000
350.74	4.50720000	0.50503000
352.23	4.47760000	0.48534000
353.74	4.44840000	0.46650000
355.26	4.42030000	0.44990000
356.79	4.39430000	0.43521000
358.34	4.36950000	0.42161000
359.90	4.34540000	0.40910000
361.47	4.32250000	0.39764000
363.06	4.30100000	0.38627000
364.66	4.27990000	0.37445000
366.28	4.25860000	0.36202000
367.91	4.23750000	0.34925000
369.55	4.21720000	0.33705000
371.21	4.19800000	0.32508000
372.89	4.17980000	0.31229000
374.58	4.16170000	0.29811000
376.28	4.14390000	0.28317000
378.00	4.12690000	0.26917000
379.74	4.10990000	0.25578000
381.49	4.09420000	0.24256000
383.26	4.07950000	0.23062000
385.05	4.06420000	0.21968000
386.85	4.04820000	0.20901000
388.67	4.03140000	0.19812000
390.50	4.01490000	0.18600000
392.36	3.99910000	0.17274000
394.23	3.98270000	0.16013000
396.12	3.96440000	0.14918000
398.03	3.94570000	0.13897000
399.95	3.92920000	0.12878000
401.90	3.91180000	0.11874000
403.86	3.89350000	0.10904000
405.84	3.87630000	0.09961500
407.85	3.85830000	0.09004500
409.87	3.84090000	0.08038500
411.91	3.82450000	0.07089300
413.97	3.80570000	0.06194600
416.06	3.78560000	0.05422800
418.16	3.76620000	0.04799100
420.29	3.74690000	0.04317000
422.44	3.72870000	0.03906300
424.61	3.71240000	0.03479300
426.80	3.69670000	0.03021200
429.01	3.68120000	0.02528600
431.25	3.66640000	0.02004100
433.51	3.65210000	0.01487100
435.80	3.63670000	0.00988600
438.11	3.61890000	0.00494600
440.44	3.59910000	0.00124300
442.80	3.58140000	0.00000000
445.19	3.56590000	0.00000000
447.60	3.55020000	0.00000000
450.04	3.53520000	0.00000000
452.50	3.52170000	0.00000000
454.99	3.50950000	0.00000000
457.51	3.49860000	0.00000000
460.06	3.48720000	0.00000000
462.63	3.47540000	0.00000000
465.24	3.46320000	0.00000000
467.87	3.45040000	0.00000000
470.53	3.43870000	0.00000000
473.23	3.42810000	0.00000000
475.95	3.41860000	0.00000000
478.71	3.41010000	0.00000000
481.50	3.40110000	0.00000000
484.32	3.39150000	0.00000000
487.17	3.38130000	0.00000000
490.06	3.37040000	0.00000000
492.98	3.36140000	0.00000000
495.94	3.35340000	0.00000000
498.93	3.34390000	0.00000000
501.96	3.33540000	0.00000000
505.03	3.32860000	0.00000000
508.14	3.32050000	0.00000000
511.28	3.31090000	0.00000000
514.46	3.30310000	0.00000000
517.68	3.29610000	0.00000000
520.95	3.28780000	0.00000000
524.25	3.27960000	0.00000000
527.60	3.27310000	0.00000000
530.99	3.26750000	0.00000000
534.42	3.26050000	0.00000000
537.90	3.25280000	0.00000000
541.42	3.24600000	0.00000000
544.99	3.23850000	0.00000000
548.61	3.23110000	0.00000000
552.27	3.22470000	0.00000000
555.99	3.21920000	0.00000000
559.75	3.21450000	0.00000000
563.57	3.20830000	0.00000000
567.44	3.20060000	0.00000000
571.36	3.19470000	0.00000000
575.34	3.19050000	0.00000000
579.37	3.18480000	0.00000000
583.46	3.17830000	0.00000000
587.61	3.17350000	0.00000000
591.81	3.16880000	0.00000000
596.08	3.16340000	0.00000000
600.41	3.15730000	0.00000000
604.81	3.15130000	0.00000000
609.26	3.14620000	0.00000000
613.79	3.14030000	0.00000000
618.38	3.13450000	0.00000000
623.04	3.12960000	0.00000000
627.77	3.12550000	0.00000000
632.58	3.12160000	0.00000000
637.46	3.11680000	0.00000000
642.41	3.11220000	0.00000000
647.44	3.10770000	0.00000000
652.55	3.10400000	0.00000000
657.75	3.10030000	0.00000000
663.02	3.09590000	0.00000000
668.38	3.09090000	0.00000000
673.83	3.08510000	0.00000000
679.37	3.08010000	0.00000000
685.00	3.07680000	0.00000000
690.73	3.07350000	0.00000000
696.55	3.06870000	0.00000000
702.47	3.06480000	0.00000000
708.49	3.06240000	0.00000000
714.61	3.05870000	0.00000000
720.84	3.05340000	0.00000000
727.19	3.04970000	0.00000000
733.64	3.04680000	0.00000000
740.21	3.04240000	0.00000000
746.90	3.03890000	0.00000000
753.71	3.03610000	0.00000000
760.65	3.03190000	0.00000000
767.71	3.02780000	0.00000000
774.91	3.02450000	0.00000000
782.24	3.02200000	0.00000000
789.71	3.01940000	0.00000000
797.33	3.01620000	0.00000000
805.10	3.01310000	0.00000000
813.02	3.01000000	0.00000000
821.09	3.00770000	0.00000000
829.33	3.00470000	0.00000000
837.74	3.00090000	0.00000000
846.32	2.99870000	0.00000000
855.07	2.99660000	0.00000000
864.01	2.99380000	0.00000000
873.14	2.99100000	0.00000000
882.46	2.98750000	0.00000000
891.98	2.98320000	0.00000000
901.71	2.98060000	0.00000000
911.66	2.97940000	0.00000000
921.82	2.97760000	0.00000000
932.22	2.97500000	0.00000000
942.85	2.97250000	0.00000000
953.73	2.97010000	0.00000000
964.87	2.96690000	0.00000000
976.26	2.96380000	0.00000000
987.93	2.96220000	0.00000000
