; From SOPRA S.A. http://www.sopra-sa.com/indices.htm
; Filename    Symbol               Range (nm)     Description
; ALAS052T    AlAs                275      987    Aluminum Arsenide (Temp: 52 C)
; lambda/nm       n         k
275.83 	4.39680000 	2.56610000 
276.75 	4.37890000 	2.51500000 
277.68 	4.35560000 	2.46730000 
278.62 	4.33100000 	2.43320000 
279.56 	4.30850000 	2.40540000 
280.51 	4.28710000 	2.37790000 
281.46 	4.26370000 	2.35370000 
282.43 	4.24090000 	2.33520000 
283.39 	4.22150000 	2.32260000 
284.37 	4.20220000 	2.31260000 
285.35 	4.18540000 	2.30270000 
286.34 	4.17580000 	2.29360000 
287.34 	4.16930000 	2.28820000 
288.34 	4.16620000 	2.28830000 
289.35 	4.16750000 	2.29350000 
290.36 	4.17130000 	2.30120000 
291.39 	4.17790000 	2.31010000 
292.42 	4.18790000 	2.32300000 
293.46 	4.20210000 	2.33540000 
294.50 	4.22180000 	2.34260000 
295.55 	4.24720000 	2.34790000 
296.62 	4.27620000 	2.35380000 
297.68 	4.30850000 	2.36160000 
298.76 	4.34500000 	2.37010000 
299.84 	4.38560000 	2.37700000 
300.93 	4.43060000 	2.37930000 
302.03 	4.48070000 	2.37410000 
303.14 	4.53600000 	2.36050000 
304.26 	4.59380000 	2.33930000 
305.38 	4.65220000 	2.31220000 
306.51 	4.71240000 	2.28180000 
307.66 	4.77260000 	2.24950000 
308.80 	4.83070000 	2.21620000 
309.96 	4.88450000 	2.18210000 
311.13 	4.93510000 	2.14390000 
312.31 	4.98780000 	2.09950000 
313.49 	5.04260000 	2.04820000 
314.68 	5.09660000 	1.98650000 
315.89 	5.14830000 	1.91210000 
317.10 	5.19570000 	1.82680000 
318.32 	5.23800000 	1.73170000 
319.55 	5.27410000 	1.62730000 
320.79 	5.29780000 	1.51870000 
322.04 	5.30390000 	1.41020000 
323.30 	5.29480000 	1.30320000 
324.57 	5.27070000 	1.20380000 
325.85 	5.23020000 	1.11760000 
327.14 	5.17690000 	1.04370000 
328.44 	5.11490000 	0.98176000 
329.75 	5.04760000 	0.93077000 
331.07 	4.98360000 	0.88518000 
332.40 	4.92810000 	0.84258000 
333.74 	4.87860000 	0.80329000 
335.10 	4.83440000 	0.76550000 
336.46 	4.79570000 	0.72746000 
337.83 	4.75780000 	0.69074000 
339.22 	4.72020000 	0.65787000 
340.62 	4.68420000 	0.62806000 
342.03 	4.64780000 	0.60075000 
343.45 	4.61250000 	0.57573000 
344.88 	4.58060000 	0.55176000 
346.33 	4.55070000 	0.53061000 
347.78 	4.52080000 	0.51341000 
349.25 	4.49140000 	0.49823000 
350.74 	4.46350000 	0.48374000 
352.23 	4.43670000 	0.46894000 
353.74 	4.41000000 	0.45358000 
355.26 	4.38420000 	0.43795000 
356.79 	4.35920000 	0.42298000 
358.34 	4.33480000 	0.40887000 
359.90 	4.31160000 	0.39364000 
361.47 	4.28980000 	0.37826000 
363.06 	4.26880000 	0.36474000 
364.66 	4.24810000 	0.35209000 
366.28 	4.22820000 	0.33977000 
367.91 	4.20920000 	0.32816000 
369.55 	4.19080000 	0.31635000 
371.21 	4.17320000 	0.30382000 
372.89 	4.15570000 	0.29174000 
374.58 	4.13750000 	0.28012000 
376.28 	4.11950000 	0.26736000 
378.00 	4.10260000 	0.25368000 
379.74 	4.08620000 	0.24099000 
381.49 	4.06960000 	0.23010000 
383.26 	4.05360000 	0.22000000 
385.05 	4.03870000 	0.20921000 
386.85 	4.02360000 	0.19793000 
388.67 	4.00680000 	0.18675000 
390.50 	3.99010000 	0.17497000 
392.36 	3.97420000 	0.16298000 
394.23 	3.95890000 	0.15204000 
396.12 	3.94240000 	0.14163000 
398.03 	3.92540000 	0.13081000 
399.95 	3.90980000 	0.11994000 
401.90 	3.89330000 	0.10931000 
403.86 	3.87580000 	0.09863100 
405.84 	3.85880000 	0.08767500 
407.85 	3.84020000 	0.07697700 
409.87 	3.82190000 	0.06701600 
411.91 	3.80500000 	0.05759100 
413.97 	3.78600000 	0.04873400 
416.06 	3.76570000 	0.04105600 
418.16 	3.74660000 	0.03500400 
420.29 	3.72800000 	0.02966000 
422.44 	3.71010000 	0.02367000 
424.61 	3.69270000 	0.01713000 
426.80 	3.67440000 	0.01054400 
429.01 	3.65490000 	0.00460400 
431.25 	3.63530000 	0.00098300 
433.51 	3.61750000 	0.00000000 
435.80 	3.60080000 	0.00000000 
438.11 	3.58380000 	0.00000000 
440.44 	3.56680000 	0.00000000 
442.80 	3.55220000 	0.00000000 
445.19 	3.53910000 	0.00000000 
447.60 	3.52470000 	0.00000000 
450.04 	3.51080000 	0.00000000 
452.50 	3.49820000 	0.00000000 
454.99 	3.48670000 	0.00000000 
457.51 	3.47650000 	0.00000000 
460.06 	3.46570000 	0.00000000 
462.63 	3.45450000 	0.00000000 
465.24 	3.44270000 	0.00000000 
467.87 	3.43030000 	0.00000000 
470.53 	3.41900000 	0.00000000 
473.23 	3.40880000 	0.00000000 
475.95 	3.39960000 	0.00000000 
478.71 	3.39140000 	0.00000000 
481.50 	3.38270000 	0.00000000 
484.32 	3.37330000 	0.00000000 
487.17 	3.36330000 	0.00000000 
490.06 	3.35280000 	0.00000000 
492.98 	3.34400000 	0.00000000 
495.94 	3.33620000 	0.00000000 
498.93 	3.32690000 	0.00000000 
501.96 	3.31870000 	0.00000000 
505.03 	3.31210000 	0.00000000 
508.14 	3.30410000 	0.00000000 
511.28 	3.29470000 	0.00000000 
514.46 	3.28700000 	0.00000000 
517.68 	3.28030000 	0.00000000 
520.95 	3.27200000 	0.00000000 
524.25 	3.26400000 	0.00000000 
527.60 	3.25760000 	0.00000000 
530.99 	3.25210000 	0.00000000 
534.42 	3.24520000 	0.00000000 
537.90 	3.23760000 	0.00000000 
541.42 	3.23100000 	0.00000000 
544.99 	3.22370000 	0.00000000 
548.61 	3.21640000 	0.00000000 
552.27 	3.21000000 	0.00000000 
555.99 	3.20460000 	0.00000000 
559.75 	3.20000000 	0.00000000 
563.57 	3.19390000 	0.00000000 
567.44 	3.18640000 	0.00000000 
571.36 	3.18060000 	0.00000000 
575.34 	3.17640000 	0.00000000 
579.37 	3.17070000 	0.00000000 
583.46 	3.16440000 	0.00000000 
587.61 	3.15960000 	0.00000000 
591.81 	3.15490000 	0.00000000 
596.08 	3.14960000 	0.00000000 
600.41 	3.14370000 	0.00000000 
604.81 	3.13770000 	0.00000000 
609.26 	3.13260000 	0.00000000 
613.79 	3.12680000 	0.00000000 
618.38 	3.12120000 	0.00000000 
623.04 	3.11630000 	0.00000000 
627.77 	3.11230000 	0.00000000 
632.58 	3.10830000 	0.00000000 
637.46 	3.10370000 	0.00000000 
642.41 	3.09910000 	0.00000000 
647.44 	3.09460000 	0.00000000 
652.55 	3.09090000 	0.00000000 
657.75 	3.08720000 	0.00000000 
663.02 	3.08290000 	0.00000000 
668.38 	3.07800000 	0.00000000 
673.83 	3.07230000 	0.00000000 
679.37 	3.06740000 	0.00000000 
685.00 	3.06410000 	0.00000000 
690.73 	3.06080000 	0.00000000 
696.55 	3.05610000 	0.00000000 
702.47 	3.05220000 	0.00000000 
708.49 	3.04990000 	0.00000000 
714.61 	3.04610000 	0.00000000 
720.84 	3.04090000 	0.00000000 
727.19 	3.03720000 	0.00000000 
733.64 	3.03430000 	0.00000000 
740.21 	3.03010000 	0.00000000 
746.90 	3.02660000 	0.00000000 
753.71 	3.02380000 	0.00000000 
760.65 	3.01960000 	0.00000000 
767.71 	3.01550000 	0.00000000 
774.91 	3.01220000 	0.00000000 
782.24 	3.00970000 	0.00000000 
789.71 	3.00730000 	0.00000000 
797.33 	3.00410000 	0.00000000 
805.10 	3.00100000 	0.00000000 
813.02 	2.99780000 	0.00000000 
821.09 	2.99550000 	0.00000000 
829.33 	2.99250000 	0.00000000 
837.74 	2.98890000 	0.00000000 
846.32 	2.98670000 	0.00000000 
855.07 	2.98450000 	0.00000000 
864.01 	2.98170000 	0.00000000 
873.14 	2.97890000 	0.00000000 
882.46 	2.97550000 	0.00000000 
891.98 	2.97130000 	0.00000000 
901.71 	2.96870000 	0.00000000 
911.66 	2.96750000 	0.00000000 
921.82 	2.96570000 	0.00000000 
932.22 	2.96310000 	0.00000000 
942.85 	2.96060000 	0.00000000 
953.73 	2.95820000 	0.00000000 
964.87 	2.95510000 	0.00000000 
976.26 	2.95200000 	0.00000000 
987.93 	2.95030000 	0.00000000 
