; From SOPRA S.A. http://www.sopra-sa.com/indices.htm
; Filename    Symbol               Range (nm)     Description
; ALAS331T    AlAs                275      987    Aluminum Arsenide (Temp: 331 C)
; lambda/nm       n         k
275.83	4.33950000	2.87710000
276.75	4.35310000	2.82400000
277.68	4.35450000	2.77690000
278.62	4.34990000	2.73210000
279.56	4.34560000	2.68650000
280.51	4.34040000	2.64420000
281.46	4.33280000	2.60640000
282.43	4.32270000	2.56950000
283.39	4.31210000	2.53160000
284.37	4.30230000	2.49430000
285.35	4.29060000	2.46050000
286.34	4.27760000	2.42960000
287.34	4.26610000	2.40120000
288.34	4.25570000	2.37480000
289.35	4.24720000	2.35090000
290.36	4.24130000	2.33240000
291.39	4.23790000	2.31980000
292.42	4.23640000	2.31230000
293.46	4.23500000	2.30580000
294.50	4.23330000	2.29910000
295.55	4.23140000	2.29510000
296.62	4.23260000	2.28940000
297.68	4.24020000	2.27850000
298.76	4.25020000	2.26550000
299.84	4.26090000	2.25350000
300.93	4.27470000	2.24340000
302.03	4.29120000	2.23490000
303.14	4.30900000	2.22690000
304.26	4.32630000	2.21990000
305.38	4.34380000	2.21340000
306.51	4.36400000	2.20600000
307.66	4.38800000	2.19760000
308.80	4.41490000	2.18940000
309.96	4.44340000	2.18060000
311.13	4.47450000	2.16900000
312.31	4.50750000	2.15420000
313.49	4.53960000	2.13570000
314.68	4.57350000	2.11420000
315.89	4.61140000	2.09130000
317.10	4.65140000	2.06500000
318.32	4.69150000	2.03390000
319.55	4.73030000	1.99940000
320.79	4.76680000	1.96330000
322.04	4.80060000	1.92320000
323.30	4.83510000	1.87640000
324.57	4.86950000	1.82620000
325.85	4.89730000	1.77370000
327.14	4.91960000	1.71830000
328.44	4.93730000	1.66140000
329.75	4.94730000	1.60200000
331.07	4.95030000	1.53960000
332.40	4.94970000	1.47520000
333.74	4.94540000	1.40930000
335.10	4.93760000	1.34180000
336.46	4.93250000	1.27440000
337.83	4.92900000	1.20980000
339.22	4.91910000	1.14760000
340.62	4.90310000	1.08740000
342.03	4.88300000	1.03040000
343.45	4.85860000	0.97633000
344.88	4.83100000	0.92623000
346.33	4.80140000	0.88032000
347.78	4.77030000	0.83642000
349.25	4.73870000	0.79498000
350.74	4.70820000	0.75804000
352.23	4.67880000	0.72409000
353.74	4.64900000	0.69188000
355.26	4.61940000	0.66174000
356.79	4.59080000	0.63353000
358.34	4.56240000	0.60757000
359.90	4.53410000	0.58368000
361.47	4.50610000	0.56155000
363.06	4.47920000	0.54052000
364.66	4.45350000	0.52044000
366.28	4.42800000	0.50247000
367.91	4.40310000	0.48605000
369.55	4.37870000	0.46879000
371.21	4.35510000	0.44929000
372.89	4.33270000	0.42865000
374.58	4.31060000	0.40802000
376.28	4.28870000	0.38801000
378.00	4.26710000	0.37016000
379.74	4.24580000	0.35506000
381.49	4.22440000	0.34194000
383.26	4.20320000	0.33033000
385.05	4.18240000	0.32002000
386.85	4.16220000	0.30948000
388.67	4.14310000	0.29708000
390.50	4.12490000	0.28329000
392.36	4.10710000	0.26976000
394.23	4.08960000	0.25774000
396.12	4.07210000	0.24649000
398.03	4.05590000	0.23544000
399.95	4.04120000	0.22511000
401.90	4.02490000	0.21445000
403.86	4.00690000	0.20354000
405.84	3.98990000	0.19412000
407.85	3.97360000	0.18499000
409.87	3.95860000	0.17429000
411.91	3.94430000	0.16281000
413.97	3.92760000	0.15207000
416.06	3.91030000	0.14189000
418.16	3.89350000	0.13159000
420.29	3.87530000	0.12190000
422.44	3.85710000	0.11318000
424.61	3.84000000	0.10505000
426.80	3.82330000	0.09732900
429.01	3.80690000	0.08966300
431.25	3.79120000	0.08198000
433.51	3.77580000	0.07470800
435.80	3.75950000	0.06821300
438.11	3.74200000	0.06285700
440.44	3.72460000	0.05826300
442.80	3.70980000	0.05338300
445.19	3.69560000	0.04770100
447.60	3.67950000	0.04270000
450.04	3.66410000	0.03899400
452.50	3.65030000	0.03428200
454.99	3.63650000	0.02879400
457.51	3.62280000	0.02449500
460.06	3.60910000	0.02137700
462.63	3.59580000	0.01800400
465.24	3.58170000	0.01351800
467.87	3.56610000	0.00885900
470.53	3.55040000	0.00447800
473.23	3.53450000	0.00114300
475.95	3.51950000	0.00000000
478.71	3.50660000	0.00000000
481.50	3.49400000	0.00000000
484.32	3.48140000	0.00000000
487.17	3.46860000	0.00000000
490.06	3.45550000	0.00000000
492.98	3.44430000	0.00000000
495.94	3.43410000	0.00000000
498.93	3.42280000	0.00000000
501.96	3.41250000	0.00000000
505.03	3.40390000	0.00000000
508.14	3.39410000	0.00000000
511.28	3.38310000	0.00000000
514.46	3.37380000	0.00000000
517.68	3.36540000	0.00000000
520.95	3.35580000	0.00000000
524.25	3.34630000	0.00000000
527.60	3.33860000	0.00000000
530.99	3.33170000	0.00000000
534.42	3.32350000	0.00000000
537.90	3.31480000	0.00000000
541.42	3.30690000	0.00000000
544.99	3.29840000	0.00000000
548.61	3.29010000	0.00000000
552.27	3.28270000	0.00000000
555.99	3.27620000	0.00000000
559.75	3.27050000	0.00000000
563.57	3.26350000	0.00000000
567.44	3.25520000	0.00000000
571.36	3.24840000	0.00000000
575.34	3.24320000	0.00000000
579.37	3.23670000	0.00000000
583.46	3.22960000	0.00000000
587.61	3.22390000	0.00000000
591.81	3.21840000	0.00000000
596.08	3.21230000	0.00000000
600.41	3.20570000	0.00000000
604.81	3.19910000	0.00000000
609.26	3.19330000	0.00000000
613.79	3.18680000	0.00000000
618.38	3.18040000	0.00000000
623.04	3.17490000	0.00000000
627.77	3.17020000	0.00000000
632.58	3.16560000	0.00000000
637.46	3.16040000	0.00000000
642.41	3.15520000	0.00000000
647.44	3.15010000	0.00000000
652.55	3.14580000	0.00000000
657.75	3.14160000	0.00000000
663.02	3.13670000	0.00000000
668.38	3.13120000	0.00000000
673.83	3.12510000	0.00000000
679.37	3.11970000	0.00000000
685.00	3.11580000	0.00000000
690.73	3.11210000	0.00000000
696.55	3.10700000	0.00000000
702.47	3.10260000	0.00000000
708.49	3.09970000	0.00000000
714.61	3.09540000	0.00000000
720.84	3.08990000	0.00000000
727.19	3.08580000	0.00000000
733.64	3.08240000	0.00000000
740.21	3.07770000	0.00000000
746.90	3.07380000	0.00000000
753.71	3.07070000	0.00000000
760.65	3.06620000	0.00000000
767.71	3.06170000	0.00000000
774.91	3.05800000	0.00000000
782.24	3.05510000	0.00000000
789.71	3.05220000	0.00000000
797.33	3.04870000	0.00000000
805.10	3.04520000	0.00000000
813.02	3.04180000	0.00000000
821.09	3.03910000	0.00000000
829.33	3.03570000	0.00000000
837.74	3.03180000	0.00000000
846.32	3.02930000	0.00000000
855.07	3.02680000	0.00000000
864.01	3.02370000	0.00000000
873.14	3.02060000	0.00000000
882.46	3.01680000	0.00000000
891.98	3.01250000	0.00000000
901.71	3.00960000	0.00000000
911.66	3.00800000	0.00000000
921.82	3.00590000	0.00000000
932.22	3.00310000	0.00000000
942.85	3.00030000	0.00000000
953.73	2.99760000	0.00000000
964.87	2.99430000	0.00000000
976.26	2.99100000	0.00000000
987.93	2.98900000	0.00000000
