; From SOPRA S.A. http://www.sopra-sa.com/indices.htm
; Filename    Symbol               Range (nm)     Description
; ALGAAS2     Al0.198Ga0.802As    206     2479    Aluminum Gallium Arsenide (20% Al)
; lambda/nm       n         k
206.64	1.33300400	2.45723300
207.33	1.33236100	2.47384000
208.03	1.33477000	2.49624300
208.73	1.33831400	2.50195700
209.43	1.33746800	2.51906300
210.14	1.33950200	2.53146400
210.86	1.34192500	2.54179700
211.58	1.34211700	2.55758800
212.30	1.33994600	2.57396000
213.03	1.34517600	2.58487800
213.77	1.34857900	2.60042400
214.51	1.35161100	2.61934900
215.25	1.35241900	2.63515000
216.00	1.35683500	2.65266300
216.76	1.36019600	2.67083400
217.52	1.36616900	2.68799600
218.28	1.36961600	2.70838900
219.06	1.37378900	2.73007800
219.83	1.37990100	2.75094000
220.61	1.38559600	2.77211500
221.40	1.39316700	2.79396000
222.20	1.40037800	2.81670700
222.99	1.40907200	2.84060600
223.80	1.41569100	2.86271300
224.61	1.42492800	2.88687000
225.43	1.43331000	2.91231400
226.25	1.44298700	2.93794900
227.08	1.45591500	2.96539800
227.91	1.46576300	2.99111200
228.75	1.47838500	3.01923500
229.60	1.49059900	3.04913900
230.46	1.50447900	3.08012700
231.32	1.51835500	3.10951600
232.18	1.53419200	3.14111100
233.05	1.55023600	3.17410400
233.93	1.56750700	3.20836800
234.82	1.58701600	3.24542900
235.71	1.60542800	3.28279500
236.61	1.62829300	3.32181500
237.52	1.65184800	3.36282000
238.43	1.67737700	3.40712300
239.35	1.70667000	3.45247300
240.28	1.73748600	3.49952200
241.22	1.77293600	3.54927200
242.16	1.81262800	3.60023000
243.11	1.85998400	3.65429300
244.07	1.91300700	3.70681000
245.03	1.97386700	3.76210000
246.00	2.04264500	3.81661000
246.98	2.12154900	3.86702700
247.97	2.21040700	3.91395800
248.97	2.30760900	3.95142900
249.97	2.41182800	3.97891600
250.98	2.52044600	3.99511800
252.00	2.62651300	3.99938400
253.03	2.73426800	3.99718100
254.07	2.83631000	3.98799900
255.11	2.94114700	3.96796100
256.17	3.04376100	3.94192200
257.23	3.14257200	3.90774300
258.30	3.23818800	3.86718300
259.38	3.33011200	3.81928000
260.47	3.41765500	3.76368700
261.57	3.49841800	3.70317900
262.68	3.56995900	3.64017600
263.80	3.63808100	3.57462300
264.93	3.70000300	3.51058500
266.06	3.75990300	3.44522800
267.21	3.81750400	3.37616300
268.37	3.87438500	3.30250600
269.53	3.92394500	3.22305800
270.71	3.96688500	3.13924400
271.90	4.00039200	3.05410900
273.10	4.02374200	2.96851100
274.30	4.04148900	2.88426700
275.52	4.05253400	2.80262500
276.75	4.05456000	2.72407400
277.99	4.05279700	2.64881500
279.25	4.04526500	2.57812100
280.51	4.03379600	2.51188900
281.78	4.01847000	2.44949500
283.07	3.99979800	2.39209700
284.37	3.98001400	2.33871600
285.68	3.95799600	2.29019400
287.00	3.93524300	2.24595200
288.34	3.91089500	2.20585400
289.69	3.88652000	2.17005400
291.05	3.86259200	2.13725600
292.42	3.83897800	2.10837300
293.80	3.81639600	2.08272000
295.20	3.79507200	2.05883900
296.62	3.77423500	2.03822600
298.04	3.75510200	2.01971400
299.48	3.73610800	2.00340700
300.93	3.71795400	1.98872300
302.40	3.70141600	1.97633200
303.89	3.68566300	1.96534900
305.38	3.67089500	1.95558500
306.89	3.65707200	1.94700300
308.42	3.64433200	1.93945300
309.96	3.63259200	1.93337600
311.52	3.62113400	1.92846200
313.09	3.61143900	1.92415000
314.68	3.60279000	1.92122400
316.29	3.59485600	1.91892000
317.91	3.58808600	1.91716500
319.55	3.58236600	1.91647600
321.21	3.57752400	1.91676700
322.88	3.57296600	1.91766800
324.57	3.57011300	1.91923800
326.28	3.56787500	1.92187600
328.00	3.56689400	1.92382900
329.75	3.56621200	1.92785800
331.51	3.56728100	1.93171500
333.29	3.56926500	1.93662000
335.10	3.57188800	1.94204300
336.92	3.57530600	1.94790300
338.76	3.58040600	1.95486800
340.62	3.58639100	1.96220900
342.50	3.59315300	1.97011500
344.40	3.60207100	1.97859300
346.33	3.61148500	1.98793000
348.27	3.62310700	1.99802400
350.24	3.63659000	2.00876000
352.23	3.65100500	2.02103300
354.24	3.66788000	2.03425900
356.28	3.68639500	2.04789900
358.34	3.70729500	2.06277000
360.42	3.73174800	2.07880500
362.53	3.75974900	2.09560200
364.66	3.79224100	2.11486700
366.82	3.83087100	2.13504900
369.00	3.87789600	2.15513000
371.21	3.93543100	2.17373400
373.45	4.00586500	2.18402100
375.71	4.08455300	2.18019900
378.00	4.16395300	2.15833400
380.32	4.23592400	2.11975800
382.67	4.29519300	2.07183900
385.05	4.34207100	2.02299000
387.45	4.37924300	1.97812700
389.89	4.41169500	1.93911600
392.36	4.44226200	1.90987400
394.86	4.48083000	1.88941500
397.39	4.53291500	1.87541200
399.95	4.60776400	1.85773800
402.55	4.70658500	1.81724700
405.18	4.81353900	1.73346900
407.85	4.89655600	1.60697100
410.55	4.93810600	1.46163200
413.28	4.94255100	1.32152300
416.06	4.92075500	1.20003800
418.87	4.88589300	1.09629400
421.72	4.84489400	1.00907100
424.61	4.80156700	0.93070600
427.54	4.75680000	0.86413500
430.50	4.71219300	0.80591700
433.51	4.66843500	0.75458600
436.57	4.62598000	0.70965100
439.66	4.58548500	0.67205600
442.80	4.54717100	0.63638300
445.99	4.50968100	0.60408600
449.22	4.47440900	0.57291500
452.50	4.43955300	0.54910600
455.83	4.40664400	0.52039800
459.20	4.37509900	0.49821600
462.63	4.34430600	0.47954000
466.11	4.31521100	0.45882400
469.64	4.28696100	0.44557600
473.23	4.25945000	0.42478400
476.87	4.23480900	0.40832800
480.56	4.20972700	0.39046100
484.32	4.18577800	0.37849200
488.13	4.16273800	0.36464000
492.00	4.13987000	0.35428700
495.94	4.11839600	0.34181600
499.94	4.09838500	0.32772100
504.00	4.07879700	0.31691800
508.14	4.05960500	0.30479400
512.34	4.04122100	0.29402000
516.60	4.02228200	0.28741400
520.95	4.00495700	0.27721600
525.36	3.98823700	0.26703000
529.85	3.97185200	0.25496800
534.42	3.95548100	0.24895200
539.07	3.93989500	0.24267700
543.79	3.92516400	0.23474900
548.61	3.91152200	0.22344100
553.51	3.89678200	0.22053000
558.49	3.88386500	0.21017700
563.57	3.87129000	0.20258600
568.74	3.85931500	0.19486300
574.01	3.84770900	0.18627500
579.37	3.83651400	0.17907500
584.84	3.82581900	0.17155300
590.41	3.81527500	0.16507800
596.08	3.80621100	0.15542600
601.87	3.79702000	0.14696100
607.77	3.78689100	0.13387400
613.79	3.77307200	0.12428800
619.93	3.75948200	0.11795400
626.19	3.74735100	0.11197900
632.58	3.73561500	0.10651300
639.10	3.72354700	0.10077500
645.76	3.71132700	0.09683000
652.55	3.70014400	0.09404000
659.50	3.69111800	0.09160200
666.59	3.68093200	0.08798800
673.83	3.67270100	0.08718900
681.24	3.66609500	0.08476600
688.81	3.66209000	0.08149900
696.55	3.65633300	0.07472900
704.46	3.65070000	0.07180400
712.56	3.65742400	0.06787000
720.84	3.66572100	0.03503000
729.32	3.63550800	0.00186300
738.01	3.61027100	0.00222100
746.90	3.58905600	0.00015800
756.01	3.57036000	0.00147500
765.34	3.55252500	0.00129800
774.91	3.53578200	0.00218500
784.72	3.51937300	0.00217900
794.78	3.50321000	0.00174100
805.10	3.48757000	0.00167700
815.69	3.47208000	0.00016500
826.57	3.45687700	0.00000000
