; From SOPRA S.A. http://www.sopra-sa.com/indices.htm
; Filename    Symbol               Range (nm)     Description
; ALGAAS8     Al0.804Ga0.196As    206     2479    Aluminum Gallium Arsenide (80% Al)
; lambda/nm       n         k
206.64	1.36773000	2.40863500
207.33	1.36670600	2.42523100
208.03	1.36351300	2.43705400
208.73	1.36385000	2.44933800
209.43	1.36177100	2.45985700
210.14	1.36029900	2.47511500
210.86	1.35545700	2.48874500
211.58	1.35850900	2.50579800
212.30	1.36055700	2.52515600
213.03	1.35678000	2.54164900
213.77	1.35367200	2.56009400
214.51	1.35782600	2.57920300
215.25	1.36064800	2.60047300
216.00	1.36502700	2.62241600
216.76	1.36515700	2.64225500
217.52	1.36887900	2.66658300
218.28	1.37264500	2.69101700
219.06	1.37992800	2.71482000
219.83	1.38341500	2.73882300
220.61	1.39051000	2.76771700
221.40	1.39854200	2.79158900
222.20	1.40606500	2.81879800
222.99	1.41450000	2.84671300
223.80	1.42439400	2.87482500
224.61	1.43594400	2.90439500
225.43	1.44753300	2.93476100
226.25	1.46101000	2.96533700
227.08	1.47579700	2.99976600
227.91	1.49061700	3.03251400
228.75	1.50760100	3.06801800
229.60	1.52818500	3.10423900
230.46	1.54918400	3.14218300
231.32	1.57370600	3.17930700
232.18	1.59973700	3.21615200
233.05	1.62932200	3.25453600
233.93	1.66072200	3.29332800
234.82	1.69499700	3.33093700
235.71	1.73278100	3.36708800
236.61	1.77187800	3.40451400
237.52	1.81282100	3.44081000
238.43	1.85713400	3.47546100
239.35	1.90258800	3.50961000
240.28	1.95116400	3.54188100
241.22	2.00170200	3.57543800
242.16	2.05512900	3.60543600
243.11	2.11008100	3.63453200
244.07	2.16777500	3.66226100
245.03	2.22657800	3.68888400
246.00	2.28951900	3.71488400
246.98	2.35527700	3.74051200
247.97	2.42572500	3.76286500
248.97	2.50100100	3.78353500
249.97	2.58155700	3.80038500
250.98	2.66446300	3.81039400
252.00	2.74906300	3.81525000
253.03	2.83313000	3.81458900
254.07	2.91452200	3.80718100
255.11	2.99608200	3.79702000
256.17	3.07359700	3.78392400
257.23	3.15182400	3.77368500
258.30	3.23273000	3.76488000
259.38	3.32213600	3.75656300
260.47	3.42415400	3.74210900
261.57	3.53780300	3.71099900
262.68	3.65111500	3.65593300
263.80	3.75052200	3.58220900
264.93	3.83758200	3.50077300
266.06	3.91206000	3.41868100
267.21	3.98393800	3.33362300
268.37	4.05236900	3.23731600
269.53	4.10681700	3.12737200
270.71	4.13910700	3.01151100
271.90	4.15010400	2.90117900
273.10	4.14531200	2.80164300
274.30	4.13100100	2.71404300
275.52	4.11179900	2.63928000
276.75	4.08955900	2.57409300
277.99	4.06728800	2.51819900
279.25	4.04551300	2.46881300
280.51	4.02450800	2.42639300
281.78	4.00380500	2.38882100
283.07	3.98528600	2.35506700
284.37	3.96864900	2.32617700
285.68	3.95346500	2.30001700
287.00	3.93925200	2.27739400
288.34	3.92748000	2.25633500
289.69	3.91642800	2.23817200
291.05	3.90810500	2.22200200
292.42	3.90198500	2.20677400
293.80	3.89651500	2.19434500
295.20	3.89331900	2.18348100
296.62	3.89169400	2.17341900
298.04	3.89252800	2.16433400
299.48	3.89408400	2.15682900
300.93	3.89803800	2.15006800
302.40	3.90366300	2.14375100
303.89	3.91121400	2.13833400
305.38	3.92077300	2.13330100
306.89	3.93244500	2.12837200
308.42	3.94593100	2.12372200
309.96	3.96204900	2.11913200
311.52	3.98002500	2.11429800
313.09	4.00017500	2.10990200
314.68	4.02380300	2.10462800
316.29	4.04946900	2.09848900
317.91	4.07794400	2.09166600
319.55	4.11007400	2.08282100
321.21	4.14512000	2.07138300
322.88	4.18363500	2.05712100
324.57	4.22442000	2.03744000
326.28	4.26670600	2.01332800
328.00	4.30944200	1.98297200
329.75	4.35069800	1.94805800
331.51	4.39066300	1.90903200
333.29	4.42800000	1.86524600
335.10	4.46254700	1.81963800
336.92	4.49483000	1.77379600
338.76	4.52492800	1.72615000
340.62	4.55577800	1.67536200
342.50	4.58576000	1.62018800
344.40	4.61338900	1.56101200
346.33	4.64256000	1.49299600
348.27	4.65741400	1.42435400
350.24	4.66847700	1.34933500
352.23	4.67239300	1.27101400
354.24	4.66650000	1.19916700
356.28	4.65393000	1.12831400
358.34	4.63600900	1.06200500
360.42	4.61345900	1.00100700
362.53	4.58868800	0.94381500
364.66	4.56171800	0.89036200
366.82	4.53185300	0.84358100
369.00	4.50251400	0.79759900
371.21	4.47273300	0.75640400
373.45	4.44277500	0.71879700
375.71	4.41311500	0.68452300
378.00	4.38496900	0.65148300
380.32	4.35773100	0.62098900
382.67	4.33048700	0.59256200
385.05	4.30315800	0.56658500
387.45	4.27710300	0.54073400
389.89	4.25099000	0.51757000
392.36	4.22619900	0.49611700
394.86	4.20148700	0.47423300
397.39	4.17798900	0.45515600
399.95	4.15493800	0.43693000
402.55	4.13286000	0.41940400
405.18	4.11148500	0.39982500
407.85	4.09059400	0.38326000
410.55	4.06985400	0.36860200
413.28	4.05042400	0.35288500
416.06	4.03124700	0.33651100
418.87	4.01277700	0.32390500
421.72	3.99535800	0.30761600
424.61	3.97800500	0.29206900
427.54	3.96098900	0.27609300
430.50	3.94331800	0.26070300
433.51	3.92534300	0.24553200
436.57	3.90694800	0.23364200
439.66	3.88898100	0.21902100
442.80	3.87173000	0.20468900
445.99	3.85347400	0.19228700
449.22	3.83571800	0.18583400
452.50	3.81895500	0.17377400
455.83	3.80214200	0.16715100
459.20	3.78686800	0.16072000
462.63	3.77265100	0.15238600
466.11	3.76129000	0.14508000
469.64	3.75474900	0.13421400
473.23	3.74608800	0.12024800
476.87	3.73829500	0.10397900
480.56	3.72626900	0.08457400
484.32	3.71208700	0.06431800
488.13	3.69125000	0.04150800
492.00	3.66321800	0.02399700
495.94	3.63535600	0.01291900
499.94	3.60796900	0.00502300
504.00	3.58001900	0.00255800
508.14	3.55679700	0.00376400
512.34	3.53706200	0.00418900
516.60	3.51875500	0.00347400
520.95	3.50017200	0.00258000
525.36	3.48268100	0.00359000
529.85	3.46816200	0.00424700
534.42	3.45434400	0.00321600
539.07	3.44021600	0.00273500
543.79	3.42887100	0.00292100
548.61	3.41481800	0.00080100
553.51	3.40028800	0.00001100
558.49	3.38890500	0.00000000
563.57	3.37766000	0.00000000
568.74	3.36677600	0.00000000
574.01	3.35516100	0.00000000
579.37	3.34408600	0.00000000
584.84	3.33273000	0.00000000
590.41	3.32229900	0.00000000
596.08	3.31234200	0.00000000
601.87	3.30231600	0.00000000
607.77	3.29393400	0.00000000
613.79	3.28552300	0.00000000
619.93	3.27709400	0.00000000
626.19	3.26864000	0.00000000
632.58	3.26016300	0.00000000
639.10	3.25161600	0.00000000
645.76	3.24370400	0.00000000
652.55	3.23602000	0.00000000
659.50	3.22909300	0.00000000
666.59	3.22223400	0.00000000
673.83	3.21536000	0.00000000
681.24	3.20843300	0.00000000
688.81	3.20182400	0.00000000
696.55	3.19582100	0.00000000
704.46	3.18970600	0.00000000
712.56	3.18425400	0.00000000
720.84	3.17836100	0.00000000
729.32	3.17300400	0.00000000
738.01	3.16777600	0.00000000
746.90	3.16253000	0.00000000
756.01	3.15727700	0.00000000
765.34	3.15201500	0.00000000
774.91	3.14669700	0.00000000
784.72	3.14187500	0.00000000
794.78	3.13751500	0.00000000
805.10	3.13310400	0.00000000
815.69	3.12868500	0.00000000
826.57	3.12426000	0.00000000
