; Refractive index spectrum for Au by Hagemann-2
;
; 1) H.-J. Hagemann et al.. Optical constants from the far infrared to the x-ray region: Mg, Al, Cu, Ag, Au, Bi, C, and Al<sub>2</sub>O<sub>3</sub>, <a href="http://dx.doi.org/10.1364/JOSA.65.000742"><i>J. Opt. Soc. Am.</i> <b>65</b>, 742-744 (1975)</a><br>2) H.-J. Hagemann et al.. <a href="http://refractiveindex.info/download/data/1974/Hagemann 1974 - DESY report SR-74-7.pdf">DESY report SR-74/7 (1974)</a>
;
; lambda/nm    n     k
103.30 	1.245000 	0.859000 
107.80 	1.215000 	0.895000 
112.70 	1.225000 	0.982000 
118.10 	1.267000 	1.040000 
124.00 	1.319000 	1.090000 
130.50 	1.346000 	1.100000 
137.80 	1.392000 	1.170000 
145.90 	1.449000 	1.190000 
155.00 	1.522000 	1.240000 
165.30 	1.582000 	1.150000 
177.10 	1.516000 	1.130000 
190.70 	1.433000 	1.200000 
206.60 	1.412000 	1.330000 
225.40 	1.427000 	1.480000 
248.00 	1.452000 	1.650000 
261.00 	1.496000 	1.770000 
281.80 	1.660000 	1.880000 
295.20 	1.739000 	1.890000 
310.00 	1.798000 	1.880000 
326.30 	1.838000 	1.860000 
344.40 	1.832000 	1.820000 
359.40 	1.770000 	1.830000 
375.70 	1.753000 	1.880000 
393.60 	1.750000 	1.900000 
413.30 	1.729000 	1.890000 
442.80 	1.649000 	1.830000 
476.90 	1.378000 	1.720000 
516.60 	0.700000 	1.900000 
563.60 	0.361000 	2.630000 
619.90 	0.245000 	3.330000 
826.60 	0.212000 	5.280000 
