; Refractive index spectrum for Au by Hagemann
;
; 1) H.-J. Hagemann et al.. Optical constants from the far infrared to the x-ray region: Mg, Al, Cu, Ag, Au, Bi, C, and Al<sub>2</sub>O<sub>3</sub>, <a href="http://dx.doi.org/10.1364/JOSA.65.000742"><i>J. Opt. Soc. Am.</i> <b>65</b>, 742-744 (1975)</a><br>2) H.-J. Hagemann et al.. <a href="http://refractiveindex.info/download/data/1974/Hagemann 1974 - DESY report SR-74-7.pdf">DESY report SR-74/7 (1974)</a>
;
; lambda/nm    n     k
103.30 	1.583000 	0.908000 
107.80 	1.569000 	0.920000 
112.70 	1.556000 	0.945000 
118.10 	1.548000 	0.990000 
124.00 	1.572000 	1.050000 
130.50 	1.585000 	1.070000 
137.80 	1.614000 	1.140000 
145.90 	1.666000 	1.170000 
155.00 	1.727000 	1.220000 
165.30 	1.786000 	1.150000 
177.10 	1.728000 	1.130000 
190.70 	1.665000 	1.190000 
206.60 	1.618000 	1.300000 
225.40 	1.603000 	1.450000 
248.00 	1.638000 	1.650000 
261.00 	1.702000 	1.770000 
281.80 	1.848000 	1.870000 
295.20 	1.927000 	1.890000 
310.00 	1.995000 	1.880000 
326.30 	2.039000 	1.860000 
344.40 	2.024000 	1.810000 
359.40 	1.967000 	1.840000 
375.70 	1.960000 	1.880000 
393.60 	1.960000 	1.890000 
413.30 	1.950000 	1.860000 
442.80 	1.862000 	1.810000 
476.90 	1.541000 	1.710000 
516.60 	0.878000 	2.010000 
563.60 	0.613000 	2.640000 
619.90 	0.487000 	3.310000 
826.60 	0.418000 	5.130000 
1240.00 	0.375000 	8.360000 
2480.00 	1.273000 	18.100000 
