; Refractive index spectrum for Au by Lemarchand-11.7nm
;
; F. Lemarchand, <i>private communications</i> (2013). Index determination is performed using method explained in:<br>L. Gao, F. Lemarchand, and M. Lequime. Comparison of different dispersion models for single layer optical thin film index determination, <a href="http://dx.doi.org/10.1016/j.tsf.2011.07.028"><i>Thin Solid Films</i> <b>520</b>, 501â€“509 (2011)</a>
;
; 11.7-nm monolayer deposited using the magnetron sputtering technique; thicknesses determined by X-ray diffraction.
;
; lambda/nm    n     k
350.00 	1.89894322 	1.82548546 
355.00 	1.87408874 	1.83535961 
360.00 	1.85058796 	1.84726409 
365.00 	1.82869707 	1.86089403 
370.00 	1.80864016 	1.87588739 
375.00 	1.79059499 	1.89182495 
380.00 	1.77467711 	1.90823356 
385.00 	1.76092302 	1.92459334 
390.00 	1.74927309 	1.94034972 
395.00 	1.73955559 	1.95493084 
400.00 	1.73147339 	1.96777102 
405.00 	1.72459545 	1.97833993 
410.00 	1.71835555 	1.98617711 
415.00 	1.71206075 	1.99092954 
420.00 	1.70491162 	1.99238964 
425.00 	1.69603510 	1.99052906 
430.00 	1.68452911 	1.98552384 
435.00 	1.66951584 	1.97776608 
440.00 	1.65019884 	1.96785935 
445.00 	1.62591783 	1.95659674 
450.00 	1.59619533 	1.94492363 
455.00 	1.56077076 	1.93388882 
460.00 	1.51961970 	1.92458945 
465.00 	1.47295854 	1.91811417 
470.00 	1.42123580 	1.91548828 
475.00 	1.36511216 	1.91762291 
480.00 	1.30543017 	1.92526902 
485.00 	1.24317362 	1.93897789 
490.00 	1.17941632 	1.95907056 
495.00 	1.11526124 	1.98562082 
500.00 	1.05177405 	2.01845696 
505.00 	0.98991867 	2.05718532 
510.00 	0.93050439 	2.10123442 
515.00 	0.87415257 	2.14991337 
520.00 	0.82128665 	2.20247437 
525.00 	0.77214350 	2.25816943 
530.00 	0.72680003 	2.31629445 
535.00 	0.68520729 	2.37621770 
540.00 	0.64722553 	2.43739405 
545.00 	0.61265558 	2.49936780 
550.00 	0.58126445 	2.56176802 
555.00 	0.55280465 	2.62429968 
560.00 	0.52702781 	2.68673297 
565.00 	0.50369372 	2.74889254 
570.00 	0.48257573 	2.81064748 
575.00 	0.46346371 	2.87190259 
580.00 	0.44616522 	2.93259091 
585.00 	0.43050552 	2.99266764 
590.00 	0.41632689 	3.05210511 
595.00 	0.40348760 	3.11088884 
600.00 	0.39186057 	3.16901434 
605.00 	0.38133211 	3.22648463 
610.00 	0.37180052 	3.28330834 
615.00 	0.36317490 	3.33949809 
620.00 	0.35537392 	3.39506942 
625.00 	0.34832483 	3.45003981 
630.00 	0.34196244 	3.50442799 
635.00 	0.33622829 	3.55825345 
640.00 	0.33106987 	3.61153601 
645.00 	0.32643998 	3.66429548 
650.00 	0.32229610 	3.71655149 
655.00 	0.31859985 	3.76832332 
660.00 	0.31531660 	3.81962973 
665.00 	0.31241497 	3.87048895 
670.00 	0.30986654 	3.92091857 
675.00 	0.30764550 	3.97093552 
680.00 	0.30572836 	4.02055607 
685.00 	0.30409376 	4.06979583 
690.00 	0.30272219 	4.11866972 
695.00 	0.30159583 	4.16719202 
700.00 	0.30069838 	4.21537636 
705.00 	0.30001489 	4.26323575 
710.00 	0.29953164 	4.31078260 
715.00 	0.29923605 	4.35802876 
720.00 	0.29911651 	4.40498551 
725.00 	0.29916233 	4.45166361 
730.00 	0.29936366 	4.49807333 
735.00 	0.29971138 	4.54422445 
740.00 	0.30019707 	4.59012631 
745.00 	0.30081292 	4.63578781 
750.00 	0.30155170 	4.68121743 
755.00 	0.30240669 	4.72642327 
760.00 	0.30337166 	4.77141309 
765.00 	0.30444079 	4.81619425 
770.00 	0.30560868 	4.86077382 
775.00 	0.30687030 	4.90515853 
780.00 	0.30822094 	4.94935484 
785.00 	0.30965621 	4.99336891 
790.00 	0.31117201 	5.03720663 
795.00 	0.31276450 	5.08087364 
800.00 	0.31443009 	5.12437535 
805.00 	0.31616541 	5.16771693 
810.00 	0.31796729 	5.21090334 
815.00 	0.31983278 	5.25393934 
820.00 	0.32175909 	5.29682947 
825.00 	0.32374360 	5.33957812 
830.00 	0.32578385 	5.38218947 
835.00 	0.32787752 	5.42466757 
840.00 	0.33002242 	5.46701627 
845.00 	0.33221651 	5.50923929 
850.00 	0.33445783 	5.55134022 
855.00 	0.33674456 	5.59332248 
860.00 	0.33907496 	5.63518938 
865.00 	0.34144741 	5.67694411 
870.00 	0.34386035 	5.71858972 
875.00 	0.34631233 	5.76012917 
880.00 	0.34880195 	5.80156529 
885.00 	0.35132792 	5.84290082 
890.00 	0.35388899 	5.88413841 
895.00 	0.35648397 	5.92528059 
900.00 	0.35911177 	5.96632982 
905.00 	0.36177131 	6.00728848 
910.00 	0.36446159 	6.04815884 
915.00 	0.36718167 	6.08894311 
920.00 	0.36993062 	6.12964343 
925.00 	0.37270759 	6.17026186 
930.00 	0.37551177 	6.21080038 
935.00 	0.37834236 	6.25126093 
940.00 	0.38119863 	6.29164536 
945.00 	0.38407988 	6.33195547 
950.00 	0.38698542 	6.37219301 
955.00 	0.38991462 	6.41235966 
960.00 	0.39286687 	6.45245705 
965.00 	0.39584158 	6.49248676 
970.00 	0.39883820 	6.53245033 
975.00 	0.40185620 	6.57234923 
980.00 	0.40489507 	6.61218491 
985.00 	0.40795433 	6.65195875 
990.00 	0.41103352 	6.69167210 
995.00 	0.41413220 	6.73132629 
1000.00 	0.41724994 	6.77092257 
1005.00 	0.42038634 	6.81046218 
1010.00 	0.42354102 	6.84994631 
1015.00 	0.42671362 	6.88937613 
1020.00 	0.42990376 	6.92875277 
1025.00 	0.43311113 	6.96807731 
1030.00 	0.43633540 	7.00735082 
1035.00 	0.43957625 	7.04657434 
1040.00 	0.44283339 	7.08574887 
1045.00 	0.44610654 	7.12487538 
1050.00 	0.44939542 	7.16395482 
1055.00 	0.45269978 	7.20298812 
1060.00 	0.45601936 	7.24197617 
1065.00 	0.45935392 	7.28091984 
1070.00 	0.46270324 	7.31981998 
1075.00 	0.46606709 	7.35867742 
1080.00 	0.46944526 	7.39749297 
1085.00 	0.47283754 	7.43626739 
1090.00 	0.47624375 	7.47500147 
1095.00 	0.47966368 	7.51369592 
1100.00 	0.48309717 	7.55235149 
1105.00 	0.48654404 	7.59096887 
1110.00 	0.49000412 	7.62954875 
1115.00 	0.49347725 	7.66809180 
1120.00 	0.49696327 	7.70659866 
1125.00 	0.50046205 	7.74506997 
1130.00 	0.50397343 	7.78350636 
1135.00 	0.50749727 	7.82190841 
1140.00 	0.51103346 	7.86027673 
1145.00 	0.51458185 	7.89861188 
1150.00 	0.51814232 	7.93691443 
1155.00 	0.52171476 	7.97518492 
1160.00 	0.52529906 	8.01342388 
1165.00 	0.52889509 	8.05163183 
1170.00 	0.53250277 	8.08980928 
1175.00 	0.53612198 	8.12795673 
1180.00 	0.53975262 	8.16607466 
1185.00 	0.54339460 	8.20416354 
1190.00 	0.54704784 	8.24222383 
1195.00 	0.55071223 	8.28025599 
1200.00 	0.55438770 	8.31826045 
1205.00 	0.55807417 	8.35623764 
1210.00 	0.56177154 	8.39418799 
1215.00 	0.56547975 	8.43211190 
1220.00 	0.56919873 	8.47000978 
1225.00 	0.57292839 	8.50788201 
1230.00 	0.57666867 	8.54572899 
1235.00 	0.58041951 	8.58355108 
1240.00 	0.58418084 	8.62134865 
1245.00 	0.58795258 	8.65912207 
1250.00 	0.59173470 	8.69687167 
1255.00 	0.59552712 	8.73459781 
1260.00 	0.59932978 	8.77230082 
1265.00 	0.60314264 	8.80998103 
1270.00 	0.60696564 	8.84763876 
1275.00 	0.61079873 	8.88527433 
1280.00 	0.61464185 	8.92288803 
1285.00 	0.61849496 	8.96048018 
1290.00 	0.62235802 	8.99805107 
1295.00 	0.62623096 	9.03560098 
1300.00 	0.63011376 	9.07313020 
1305.00 	0.63400637 	9.11063901 
1310.00 	0.63790875 	9.14812768 
1315.00 	0.64182085 	9.18559647 
1320.00 	0.64574263 	9.22304565 
1325.00 	0.64967406 	9.26047546 
1330.00 	0.65361511 	9.29788616 
1335.00 	0.65756573 	9.33527799 
1340.00 	0.66152588 	9.37265119 
1345.00 	0.66549555 	9.41000600 
1350.00 	0.66947468 	9.44734265 
1355.00 	0.67346325 	9.48466137 
1360.00 	0.67746123 	9.52196236 
1365.00 	0.68146859 	9.55924586 
1370.00 	0.68548530 	9.59651207 
1375.00 	0.68951132 	9.63376121 
1380.00 	0.69354663 	9.67099347 
1385.00 	0.69759121 	9.70820906 
1390.00 	0.70164502 	9.74540818 
1395.00 	0.70570804 	9.78259101 
1400.00 	0.70978025 	9.81975775 
1405.00 	0.71386161 	9.85690859 
1410.00 	0.71795210 	9.89404370 
1415.00 	0.72205171 	9.93116326 
1420.00 	0.72616040 	9.96826746 
1425.00 	0.73027816 	10.00535646 
1430.00 	0.73440496 	10.04243042 
1435.00 	0.73854078 	10.07948953 
1440.00 	0.74268560 	10.11653394 
1445.00 	0.74683939 	10.15356380 
1450.00 	0.75100215 	10.19057929 
1455.00 	0.75517384 	10.22758054 
1460.00 	0.75935446 	10.26456772 
1465.00 	0.76354397 	10.30154097 
1470.00 	0.76774236 	10.33850044 
1475.00 	0.77252593 	10.37532646 
1480.00 	0.77757578 	10.41208459 
1485.00 	0.78264129 	10.44882688 
1490.00 	0.78772244 	10.48555347 
1495.00 	0.79281923 	10.52226446 
1500.00 	0.79793164 	10.55895999 
1505.00 	0.80305967 	10.59564015 
1510.00 	0.80820331 	10.63230508 
1515.00 	0.81336254 	10.66895487 
1520.00 	0.81853736 	10.70558964 
1525.00 	0.82372775 	10.74220949 
1530.00 	0.82893371 	10.77881453 
1535.00 	0.83415523 	10.81540487 
1540.00 	0.83939230 	10.85198060 
1545.00 	0.84464492 	10.88854181 
1550.00 	0.84991306 	10.92508862 
1555.00 	0.85519673 	10.96162111 
1560.00 	0.86049592 	10.99813938 
1565.00 	0.86581061 	11.03464352 
1570.00 	0.87114080 	11.07113361 
1575.00 	0.87648649 	11.10760976 
1580.00 	0.88184766 	11.14407204 
1585.00 	0.88722430 	11.18052053 
1590.00 	0.89261642 	11.21695533 
1595.00 	0.89802399 	11.25337652 
1600.00 	0.90344702 	11.28978416 
1605.00 	0.90888549 	11.32617835 
1610.00 	0.91433940 	11.36255916 
1615.00 	0.91980874 	11.39892667 
1620.00 	0.92529350 	11.43528095 
1625.00 	0.93079368 	11.47162207 
1630.00 	0.93630927 	11.50795011 
1635.00 	0.94184026 	11.54426513 
1640.00 	0.94738664 	11.58056721 
1645.00 	0.95294842 	11.61685642 
1650.00 	0.95852557 	11.65313281 
1655.00 	0.96411809 	11.68939645 
1660.00 	0.96972598 	11.72564742 
1665.00 	0.97534923 	11.76188577 
1670.00 	0.98098783 	11.79811156 
1675.00 	0.98664178 	11.83432485 
1680.00 	0.99231107 	11.87052571 
1685.00 	0.99799569 	11.90671419 
1690.00 	1.00369563 	11.94289035 
1695.00 	1.00941089 	11.97905425 
1700.00 	1.01514146 	12.01520594 
1705.00 	1.02088733 	12.05134547 
1710.00 	1.02664850 	12.08747290 
1715.00 	1.03242497 	12.12358828 
1720.00 	1.03821671 	12.15969167 
1725.00 	1.04402374 	12.19578310 
1730.00 	1.04984603 	12.23186264 
1735.00 	1.05568359 	12.26793033 
1740.00 	1.06153640 	12.30398622 
1745.00 	1.06740446 	12.34003035 
1750.00 	1.07328776 	12.37606277 
1755.00 	1.07918630 	12.41208353 
1760.00 	1.08510007 	12.44809267 
1765.00 	1.09102907 	12.48409023 
1770.00 	1.09697327 	12.52007626 
1775.00 	1.10293269 	12.55605079 
1780.00 	1.10890731 	12.59201387 
1785.00 	1.11489712 	12.62796554 
1790.00 	1.12090212 	12.66390585 
1795.00 	1.12692230 	12.69983481 
1800.00 	1.13295765 	12.73575249 
