; From SOPRA S.A. http://www.sopra-sa.com/indices.htm
; Filename    Symbol               Range (nm)     Description
; BAF2        BaF2                200     2000    Barium Fluoride
; lambda/nm       n         k
200.00	1.56353000	0.00000000
210.00	1.55283900	0.00000000
220.00	1.54390800	0.00000000
230.00	1.53635600	0.00000000
240.00	1.52990600	0.00000000
250.00	1.52434600	0.00000000
260.00	1.51951600	0.00000000
270.00	1.51528900	0.00000000
280.00	1.51156700	0.00000000
290.00	1.50827000	0.00000000
300.00	1.50533400	0.00000000
310.00	1.50270900	0.00000000
320.00	1.50035000	0.00000000
330.00	1.49822100	0.00000000
340.00	1.49629500	0.00000000
350.00	1.49454400	0.00000000
360.00	1.49294800	0.00000000
370.00	1.49149000	0.00000000
380.00	1.49015300	0.00000000
390.00	1.48892400	0.00000000
400.00	1.48779200	0.00000000
410.00	1.48674600	0.00000000
420.00	1.48577800	0.00000000
430.00	1.48488100	0.00000000
440.00	1.48404700	0.00000000
450.00	1.48327100	0.00000000
460.00	1.48254700	0.00000000
470.00	1.48187100	0.00000000
480.00	1.48123900	0.00000000
490.00	1.48064600	0.00000000
500.00	1.48009000	0.00000000
510.00	1.47956800	0.00000000
520.00	1.47907600	0.00000000
530.00	1.47861300	0.00000000
540.00	1.47817700	0.00000000
550.00	1.47776400	0.00000000
560.00	1.47737400	0.00000000
570.00	1.47700600	0.00000000
580.00	1.47665600	0.00000000
590.00	1.47632500	0.00000000
600.00	1.47601100	0.00000000
610.00	1.47571200	0.00000000
620.00	1.47542800	0.00000000
630.00	1.47515800	0.00000000
640.00	1.47490000	0.00000000
650.00	1.47465500	0.00000000
660.00	1.47442100	0.00000000
670.00	1.47419800	0.00000000
680.00	1.47398400	0.00000000
690.00	1.47378100	0.00000000
700.00	1.47358500	0.00000000
710.00	1.47339900	0.00000000
720.00	1.47322000	0.00000000
730.00	1.47304800	0.00000000
740.00	1.47288400	0.00000000
750.00	1.47272600	0.00000000
760.00	1.47257400	0.00000000
770.00	1.47242900	0.00000000
780.00	1.47228900	0.00000000
790.00	1.47215400	0.00000000
800.00	1.47202500	0.00000000
810.00	1.47190000	0.00000000
820.00	1.47178000	0.00000000
830.00	1.47166400	0.00000000
840.00	1.47155300	0.00000000
850.00	1.47144500	0.00000000
860.00	1.47134200	0.00000000
870.00	1.47124100	0.00000000
880.00	1.47114500	0.00000000
890.00	1.47105100	0.00000000
900.00	1.47096100	0.00000000
910.00	1.47087400	0.00000000
920.00	1.47078900	0.00000000
930.00	1.47070800	0.00000000
940.00	1.47062800	0.00000000
950.00	1.47055200	0.00000000
960.00	1.47047800	0.00000000
970.00	1.47040600	0.00000000
980.00	1.47033600	0.00000000
990.00	1.47026900	0.00000000
1000.00	1.47020300	0.00000000
1010.00	1.47014000	0.00000000
1020.00	1.47007800	0.00000000
1030.00	1.47001800	0.00000000
1040.00	1.46996000	0.00000000
1050.00	1.46990300	0.00000000
1060.00	1.46984900	0.00000000
1070.00	1.46979500	0.00000000
1080.00	1.46974300	0.00000000
1090.00	1.46969300	0.00000000
1100.00	1.46964400	0.00000000
1110.00	1.46959600	0.00000000
1120.00	1.46955000	0.00000000
1130.00	1.46950500	0.00000000
1140.00	1.46946100	0.00000000
1150.00	1.46941800	0.00000000
1160.00	1.46937600	0.00000000
1170.00	1.46933500	0.00000000
1180.00	1.46929600	0.00000000
1190.00	1.46925700	0.00000000
1200.00	1.46922000	0.00000000
1210.00	1.46918300	0.00000000
1220.00	1.46914700	0.00000000
1230.00	1.46911200	0.00000000
1240.00	1.46907800	0.00000000
1250.00	1.46904500	0.00000000
1260.00	1.46901200	0.00000000
1270.00	1.46898100	0.00000000
1280.00	1.46895000	0.00000000
1290.00	1.46891900	0.00000000
1300.00	1.46889000	0.00000000
1310.00	1.46886100	0.00000000
1320.00	1.46883300	0.00000000
1330.00	1.46880500	0.00000000
1340.00	1.46877800	0.00000000
1350.00	1.46875200	0.00000000
1360.00	1.46872600	0.00000000
1370.00	1.46870100	0.00000000
1380.00	1.46867600	0.00000000
1390.00	1.46865200	0.00000000
1400.00	1.46862900	0.00000000
1410.00	1.46860600	0.00000000
1420.00	1.46858300	0.00000000
1430.00	1.46856100	0.00000000
1440.00	1.46853900	0.00000000
1450.00	1.46851800	0.00000000
1460.00	1.46849700	0.00000000
1470.00	1.46847700	0.00000000
1480.00	1.46845700	0.00000000
1490.00	1.46843700	0.00000000
1500.00	1.46841800	0.00000000
1510.00	1.46839900	0.00000000
1520.00	1.46838100	0.00000000
1530.00	1.46836300	0.00000000
1540.00	1.46834500	0.00000000
1550.00	1.46832800	0.00000000
1560.00	1.46831100	0.00000000
1570.00	1.46829400	0.00000000
1580.00	1.46827800	0.00000000
1590.00	1.46826200	0.00000000
1600.00	1.46824600	0.00000000
1610.00	1.46823000	0.00000000
1620.00	1.46821500	0.00000000
1630.00	1.46820000	0.00000000
1640.00	1.46818600	0.00000000
1650.00	1.46817100	0.00000000
1660.00	1.46815700	0.00000000
1670.00	1.46814300	0.00000000
1680.00	1.46813000	0.00000000
1690.00	1.46811600	0.00000000
1700.00	1.46810300	0.00000000
1710.00	1.46809000	0.00000000
1720.00	1.46807800	0.00000000
1730.00	1.46806500	0.00000000
1740.00	1.46805300	0.00000000
1750.00	1.46804100	0.00000000
1760.00	1.46802900	0.00000000
1770.00	1.46801700	0.00000000
1780.00	1.46800600	0.00000000
1790.00	1.46799500	0.00000000
1800.00	1.46798400	0.00000000
1810.00	1.46797300	0.00000000
1820.00	1.46796200	0.00000000
1830.00	1.46795200	0.00000000
1840.00	1.46794100	0.00000000
1850.00	1.46793100	0.00000000
1860.00	1.46792100	0.00000000
1870.00	1.46791100	0.00000000
1880.00	1.46790200	0.00000000
1890.00	1.46789200	0.00000000
1900.00	1.46788300	0.00000000
1910.00	1.46787300	0.00000000
1920.00	1.46786500	0.00000000
1930.00	1.46785500	0.00000000
1940.00	1.46784700	0.00000000
1950.00	1.46783800	0.00000000
1960.00	1.46782900	0.00000000
1970.00	1.46782100	0.00000000
1980.00	1.46781300	0.00000000
1990.00	1.46780500	0.00000000
2000.00	1.46779700	0.00000000
