;UO 
;UO Be.ASC: Values of n and k for polycrystalline beryllium from 
;UO various references in HOCII (pg. 428).  References are A, 19. 
;UO 
;UO From HANDBOOK OF OPTICAL CONSTANTS IN SOLIDS II edited by Edward D.
;UO Palik. Copyright (c) 1991 by Academic Press, Inc. Reproduced by
;UO permission of the publisher.
;UO -------------------------------------------------------------
;UO        nm        n        k
;UO -------------------------------------------------------------
;N  3
;L    Wavelength[nm]        n        k
103.30	0.29800000	1.07000000
107.80	0.30900000	1.16000000
112.70	0.32400000	1.25000000
118.10	0.34500000	1.35000000
124.00	0.37300000	1.45000000
126.50	0.38500000	1.50000000
129.10	0.39800000	1.54000000
131.90	0.41200000	1.59000000
134.80	0.42700000	1.64000000
137.80	0.44500000	1.69000000
140.90	0.46300000	1.75000000
144.20	0.49000000	1.81000000
147.60	0.51800000	1.87000000
151.20	0.55100000	1.92000000
155.00	0.58800000	1.98000000
158.90	0.62800000	2.04000000
163.10	0.67100000	2.08000000
167.50	0.70700000	2.13000000
172.20	0.74400000	2.18000000
177.10	0.77800000	2.23000000
182.30	0.80500000	2.28000000
187.80	0.82500000	2.34000000
193.70	0.83700000	2.42000000
200.00	0.84400000	2.52000000
206.60	0.84900000	2.64000000
213.80	0.82100000	2.90000000
221.40	1.08000000	3.11000000
229.60	1.31000000	3.23000000
238.40	1.54000000	3.30000000
248.00	1.78000000	3.32000000
258.30	1.99000000	3.29000000
269.50	2.17000000	3.22000000
281.80	2.30000000	3.15000000
295.20	2.39000000	3.10000000
310.00	2.47000000	3.08000000
326.30	2.55000000	3.08000000
344.40	2.64000000	3.08000000
364.60	2.73000000	3.10000000
387.40	2.84000000	3.12000000
413.30	2.95000000	3.14000000
442.80	3.07000000	3.16000000
476.80	3.19000000	3.16000000
516.60	3.30000000	3.18000000
563.50	3.39000000	3.17000000
619.90	3.46000000	3.18000000
688.80	3.47000000	3.23000000
774.90	3.44000000	3.35000000
885.60	3.35000000	3.55000000
1033.00	3.26000000	3.96000000
1240.00	3.09000000	4.51000000
1378.00	2.87000000	5.02000000
1550.00	2.74000000	5.66000000
1771.00	2.55000000	6.64000000
2066.00	2.41000000	7.88000000
2480.00	2.14000000	9.67000000
