; Refractive index spectrum for C by Djurisic-e
;
; A. B. Djurišić and; E. H. Li. Optical properties of graphite, <a href="http://dx.doi.org/ 10.1063/1.369370"><i>J. Appl. Phys.</i> <b>85</b>, 7404-7410 (1999)</a>
;
; Graphite. Extraordinary ray (e). Critical analysis and fit of the experimental data from several sources to a modified Lorentz-Drude (LD) model.<br>[<a href="http://refractiveindex.info/download/data/1999/Djurisic 1999 - Graphite - e.sce">Calculation script (Scilab)</a>]
;
; lambda/nm    n     k
100.22 	1.32971300 	0.36403900 
100.53 	1.32697100 	0.36787700 
100.84 	1.32448400 	0.37196500 
101.15 	1.32226900 	0.37629300 
101.47 	1.32034800 	0.38084800 
101.78 	1.31874000 	0.38561600 
102.10 	1.31746600 	0.39057800 
102.42 	1.31654300 	0.39571500 
102.74 	1.31599100 	0.40100400 
103.06 	1.31582500 	0.40642100 
103.39 	1.31605900 	0.41193600 
103.72 	1.31670500 	0.41752000 
104.05 	1.31777200 	0.42314000 
104.38 	1.31926400 	0.42876100 
104.71 	1.32118200 	0.43434800 
105.05 	1.32352400 	0.43986300 
105.39 	1.32628100 	0.44527000 
105.73 	1.32943900 	0.45053300 
106.07 	1.33298300 	0.45561700 
106.42 	1.33688800 	0.46048900 
106.76 	1.34112900 	0.46512000 
107.11 	1.34567300 	0.46948400 
107.47 	1.35048800 	0.47356000 
107.82 	1.35553700 	0.47733400 
108.18 	1.36078000 	0.48079600 
108.54 	1.36618100 	0.48394100 
108.90 	1.37170100 	0.48677200 
109.26 	1.37730300 	0.48929800 
109.63 	1.38295400 	0.49153300 
110.00 	1.38862500 	0.49349400 
110.37 	1.39429000 	0.49520400 
110.74 	1.39992900 	0.49668900 
111.12 	1.40552700 	0.49797700 
111.50 	1.41107600 	0.49909700 
111.88 	1.41657200 	0.50007600 
112.26 	1.42201800 	0.50094300 
112.65 	1.42742200 	0.50172400 
113.04 	1.43279400 	0.50244000 
113.43 	1.43815200 	0.50311200 
113.82 	1.44351400 	0.50375500 
114.22 	1.44890200 	0.50437900 
114.62 	1.45433800 	0.50499100 
115.02 	1.45984700 	0.50559200 
115.43 	1.46545200 	0.50617900 
115.84 	1.47117600 	0.50674400 
116.25 	1.47704100 	0.50727500 
116.66 	1.48306600 	0.50775600 
117.08 	1.48926700 	0.50816700 
117.50 	1.49565900 	0.50848700 
117.93 	1.50225100 	0.50868900 
118.35 	1.50905000 	0.50874600 
118.78 	1.51605900 	0.50863000 
119.21 	1.52327400 	0.50831200 
119.65 	1.53069200 	0.50776200 
120.09 	1.53830000 	0.50695000 
120.53 	1.54608500 	0.50584800 
120.98 	1.55402900 	0.50443100 
121.43 	1.56211000 	0.50267200 
121.88 	1.57030300 	0.50054900 
122.34 	1.57857900 	0.49804300 
122.79 	1.58690800 	0.49513900 
123.26 	1.59525700 	0.49182300 
123.72 	1.60359200 	0.48808600 
124.19 	1.61187600 	0.48392500 
124.67 	1.62007500 	0.47933800 
125.14 	1.62815300 	0.47432900 
125.62 	1.63607300 	0.46890500 
126.11 	1.64380100 	0.46307800 
126.60 	1.65130600 	0.45686300 
127.09 	1.65855500 	0.45027700 
127.58 	1.66552100 	0.44334200 
128.08 	1.67217800 	0.43608300 
128.59 	1.67850300 	0.42852400 
129.09 	1.68447600 	0.42069500 
129.61 	1.69008100 	0.41262400 
130.12 	1.69530400 	0.40434200 
130.64 	1.70013600 	0.39588100 
131.16 	1.70457000 	0.38726900 
131.69 	1.70860300 	0.37854000 
132.22 	1.71223300 	0.36972100 
132.76 	1.71546400 	0.36084400 
133.30 	1.71829900 	0.35193500 
133.85 	1.72074500 	0.34302100 
134.40 	1.72281200 	0.33412800 
134.95 	1.72451000 	0.32527800 
135.51 	1.72585200 	0.31649300 
136.07 	1.72685000 	0.30779300 
136.64 	1.72752000 	0.29919600 
137.22 	1.72787600 	0.29071800 
137.79 	1.72793500 	0.28237200 
138.38 	1.72771200 	0.27417100 
138.97 	1.72722400 	0.26612600 
139.56 	1.72648600 	0.25824700 
140.16 	1.72551600 	0.25053900 
140.76 	1.72433000 	0.24301000 
141.37 	1.72294100 	0.23566400 
141.98 	1.72136700 	0.22850600 
142.60 	1.71962100 	0.22153600 
143.22 	1.71771800 	0.21475700 
143.85 	1.71567100 	0.20817000 
144.49 	1.71349300 	0.20177300 
145.13 	1.71119700 	0.19556700 
145.78 	1.70879300 	0.18954800 
146.43 	1.70629400 	0.18371700 
147.09 	1.70370900 	0.17806900 
147.75 	1.70104800 	0.17260100 
148.42 	1.69832000 	0.16731100 
149.10 	1.69553300 	0.16219500 
149.78 	1.69269700 	0.15724800 
150.47 	1.68981700 	0.15246700 
151.17 	1.68690200 	0.14784800 
151.87 	1.68395600 	0.14338600 
152.58 	1.68098600 	0.13907700 
153.29 	1.67799800 	0.13491600 
154.01 	1.67499600 	0.13090000 
154.74 	1.67198400 	0.12702300 
155.48 	1.66896800 	0.12328200 
156.22 	1.66595100 	0.11967100 
156.97 	1.66293600 	0.11618700 
157.73 	1.65992600 	0.11282500 
158.49 	1.65692400 	0.10958200 
159.26 	1.65393300 	0.10645300 
160.04 	1.65095500 	0.10343400 
160.83 	1.64799300 	0.10052100 
161.62 	1.64504700 	0.09771100 
162.42 	1.64212000 	0.09500000 
163.23 	1.63921300 	0.09238400 
164.05 	1.63632800 	0.08986000 
164.88 	1.63346500 	0.08742400 
165.71 	1.63062500 	0.08507400 
166.56 	1.62781000 	0.08280500 
167.41 	1.62501900 	0.08061600 
168.27 	1.62225400 	0.07850200 
169.14 	1.61951500 	0.07646200 
170.02 	1.61680300 	0.07449200 
170.91 	1.61411700 	0.07259000 
171.81 	1.61145700 	0.07075300 
172.71 	1.60882500 	0.06898000 
173.63 	1.60621900 	0.06726600 
174.56 	1.60364000 	0.06561100 
175.49 	1.60108800 	0.06401200 
176.44 	1.59856200 	0.06246600 
177.40 	1.59606300 	0.06097300 
178.36 	1.59358900 	0.05952900 
179.34 	1.59114200 	0.05813300 
180.33 	1.58871900 	0.05678400 
181.33 	1.58632100 	0.05547900 
182.34 	1.58394800 	0.05421700 
183.36 	1.58159800 	0.05299600 
184.40 	1.57927200 	0.05181500 
185.44 	1.57696900 	0.05067200 
186.50 	1.57468700 	0.04956500 
187.57 	1.57242800 	0.04849400 
188.65 	1.57018900 	0.04745700 
189.74 	1.56797000 	0.04645300 
190.85 	1.56577000 	0.04548100 
191.97 	1.56359000 	0.04453900 
193.10 	1.56142700 	0.04362600 
194.25 	1.55928100 	0.04274100 
195.41 	1.55715100 	0.04188400 
196.59 	1.55503600 	0.04105300 
197.77 	1.55293500 	0.04024700 
198.98 	1.55084800 	0.03946600 
200.19 	1.54877300 	0.03870800 
201.43 	1.54670900 	0.03797200 
202.68 	1.54465400 	0.03725900 
203.94 	1.54260900 	0.03656700 
205.22 	1.54057000 	0.03589500 
206.51 	1.53853800 	0.03524300 
207.83 	1.53651000 	0.03461000 
209.15 	1.53448600 	0.03399600 
210.50 	1.53246300 	0.03340000 
211.86 	1.53044000 	0.03282300 
213.24 	1.52841400 	0.03226300 
214.64 	1.52638500 	0.03172200 
216.06 	1.52435000 	0.03119900 
217.50 	1.52230600 	0.03069500 
218.95 	1.52025100 	0.03021200 
220.43 	1.51818400 	0.02975100 
221.92 	1.51610000 	0.02931400 
223.44 	1.51399700 	0.02890600 
224.98 	1.51187200 	0.02853000 
226.53 	1.50972100 	0.02819300 
228.11 	1.50754200 	0.02790400 
229.72 	1.50533100 	0.02767200 
231.34 	1.50308500 	0.02751200 
232.99 	1.50080300 	0.02744100 
234.66 	1.49848400 	0.02748200 
236.35 	1.49613200 	0.02766100 
238.07 	1.49375500 	0.02801400 
239.82 	1.49136600 	0.02857800 
241.59 	1.48899400 	0.02940200 
243.39 	1.48668100 	0.03053300 
245.21 	1.48449300 	0.03202000 
247.06 	1.48252000 	0.03390200 
248.94 	1.48088500 	0.03619000 
250.85 	1.47973200 	0.03885300 
252.79 	1.47921300 	0.04179600 
254.76 	1.47944900 	0.04484900 
256.76 	1.48049400 	0.04777700 
258.79 	1.48229100 	0.05032000 
260.86 	1.48467200 	0.05225600 
262.95 	1.48739000 	0.05345600 
265.08 	1.49017700 	0.05390700 
267.25 	1.49280500 	0.05369500 
269.45 	1.49512100 	0.05297000 
271.69 	1.49704700 	0.05189700 
273.96 	1.49856900 	0.05062400 
276.28 	1.49971200 	0.04927300 
278.63 	1.50052300 	0.04793200 
281.02 	1.50105500 	0.04666000 
283.46 	1.50136200 	0.04549500 
285.94 	1.50149000 	0.04446100 
288.46 	1.50148200 	0.04357000 
291.02 	1.50137300 	0.04282900 
293.63 	1.50119400 	0.04224000 
296.29 	1.50097100 	0.04180600 
299.00 	1.50072700 	0.04152700 
301.76 	1.50048500 	0.04140400 
304.57 	1.50026500 	0.04144000 
307.43 	1.50009100 	0.04163800 
310.35 	1.49998700 	0.04200200 
313.32 	1.49998100 	0.04253600 
316.35 	1.50010500 	0.04324400 
319.44 	1.50039800 	0.04412400 
322.59 	1.50090900 	0.04517400 
325.80 	1.50169400 	0.04637900 
329.08 	1.50281700 	0.04771000 
332.42 	1.50435200 	0.04911700 
335.84 	1.50637100 	0.05051700 
339.32 	1.50893600 	0.05178600 
342.88 	1.51207400 	0.05275800 
346.51 	1.51575200 	0.05322700 
350.22 	1.51984600 	0.05297700 
354.01 	1.52412900 	0.05182900 
357.88 	1.52828200 	0.04969900 
361.84 	1.53195800 	0.04665000 
365.89 	1.53486400 	0.04289300 
370.03 	1.53682900 	0.03873500 
374.26 	1.53783000 	0.03450100 
378.59 	1.53796700 	0.03046200 
383.02 	1.53741000 	0.02680000 
387.56 	1.53634500 	0.02360300 
392.21 	1.53494000 	0.02089000 
396.97 	1.53333100 	0.01863300 
401.84 	1.53161800 	0.01678200 
406.84 	1.52987000 	0.01527600 
411.96 	1.52813200 	0.01405700 
417.22 	1.52643100 	0.01307300 
422.61 	1.52478400 	0.01227600 
428.14 	1.52319700 	0.01162800 
433.82 	1.52167500 	0.01109800 
439.65 	1.52021500 	0.01065900 
445.63 	1.51881800 	0.01029200 
451.79 	1.51747900 	0.00998000 
458.12 	1.51619700 	0.00971100 
464.62 	1.51496700 	0.00947400 
471.32 	1.51378700 	0.00926200 
478.21 	1.51265300 	0.00906800 
485.30 	1.51156300 	0.00888900 
492.61 	1.51051500 	0.00872000 
500.14 	1.50950500 	0.00855900 
507.90 	1.50853200 	0.00840400 
515.91 	1.50759400 	0.00825400 
524.18 	1.50668900 	0.00810700 
532.72 	1.50581500 	0.00796300 
541.53 	1.50497100 	0.00782000 
550.65 	1.50415500 	0.00767900 
560.08 	1.50336600 	0.00754000 
569.83 	1.50260300 	0.00740100 
579.93 	1.50186500 	0.00726300 
590.40 	1.50115100 	0.00712600 
