; Refractive index spectrum for C by Weber
;
; J. W. Weber, V. E. Calado and M. C. M. van de Sanden. Optical constants of graphene measured by spectroscopic ellipsometry, <a href="http://dx.doi.org/10.1063/1.3475393"><i>Appl. Phys. Lett.</i> <b>97</b>, 091904 (2010)</a><br>* Numerical data kindly provided by Jan-Willem Weber
;
; Graphene (mechanically exfoliated flake). Thickness: 3.4 Ã…. Substrate: silicon with 98-nm silicon oxide layer.
;
; lambda/nm    n     k
210.87 	1.37521100 	0.37668100 
212.46 	1.23328500 	0.41423700 
214.05 	1.09382000 	0.48083000 
215.64 	0.96750800 	0.57855500 
217.23 	0.86775200 	0.70194200 
218.81 	0.80206500 	0.83663900 
220.40 	0.76713700 	0.96827400 
221.99 	0.75448600 	1.08929400 
223.58 	0.75633200 	1.19772600 
225.17 	0.76708700 	1.29413100 
226.75 	0.78292700 	1.37991100 
228.34 	0.80116000 	1.45667300 
229.93 	0.81975600 	1.52607700 
231.52 	0.83699100 	1.58996700 
233.11 	0.85179100 	1.65110400 
234.70 	0.86490400 	1.71194300 
236.29 	0.87750700 	1.77381100 
237.87 	0.89076300 	1.83740900 
239.46 	0.90574100 	1.90302600 
241.05 	0.92338200 	1.97065700 
242.64 	0.94449200 	2.04010000 
244.23 	0.96974000 	2.11101200 
245.82 	0.99967200 	2.18296000 
247.41 	1.03473300 	2.25546000 
249.00 	1.07528400 	2.32799000 
250.59 	1.12163200 	2.40000400 
252.18 	1.17405900 	2.47092800 
253.77 	1.23285200 	2.54012700 
255.35 	1.29837200 	2.60684700 
256.94 	1.37107800 	2.66982500 
258.53 	1.45040500 	2.72720900 
260.12 	1.53507600 	2.77799400 
261.71 	1.62390400 	2.82171800 
263.30 	1.71586000 	2.85819500 
264.89 	1.81004700 	2.88739600 
266.48 	1.90568700 	2.90938700 
268.07 	2.00210000 	2.92429100 
269.66 	2.09868400 	2.93226200 
271.25 	2.19490100 	2.93347500 
272.84 	2.29026300 	2.92811000 
274.43 	2.38431500 	2.91635200 
276.02 	2.47663400 	2.89838300 
277.61 	2.56680100 	2.87438800 
279.20 	2.65440900 	2.84454600 
280.79 	2.73904000 	2.80903800 
282.38 	2.82025000 	2.76805000 
283.97 	2.89754400 	2.72178500 
285.56 	2.97032900 	2.67049100 
287.15 	3.03780200 	2.61461000 
288.74 	3.09936700 	2.55519200 
290.33 	3.15503500 	2.49319200 
291.92 	3.20494800 	2.42931700 
293.51 	3.24928300 	2.36414000 
295.10 	3.28823700 	2.29813700 
296.70 	3.32200800 	2.23171300 
298.29 	3.35079300 	2.16522800 
299.88 	3.37478700 	2.09899600 
301.47 	3.39417900 	2.03330600 
303.06 	3.40915700 	1.96841600 
304.65 	3.41990500 	1.90457000 
306.24 	3.42660400 	1.84199100 
307.83 	3.42943500 	1.78089200 
309.42 	3.42858000 	1.72147800 
311.01 	3.42422000 	1.66394200 
312.60 	3.41654500 	1.60847400 
314.19 	3.40574800 	1.55526100 
315.79 	3.39203500 	1.50448500 
317.38 	3.37562300 	1.45632400 
318.97 	3.35674800 	1.41095500 
320.56 	3.33567200 	1.36855000 
322.15 	3.31269300 	1.32927800 
323.74 	3.28815800 	1.29329400 
325.33 	3.26251800 	1.26072300 
326.92 	3.23632100 	1.23147000 
328.51 	3.20991600 	1.20526900 
330.11 	3.18353000 	1.18189700 
331.70 	3.15733900 	1.16115400 
333.29 	3.13148700 	1.14285900 
334.88 	3.10609700 	1.12684600 
336.47 	3.08127200 	1.11295600 
338.06 	3.05710300 	1.10104300 
339.65 	3.03366500 	1.09096200 
341.25 	3.01102400 	1.08257700 
342.84 	2.98923500 	1.07575600 
344.43 	2.96834400 	1.07037200 
346.02 	2.94839000 	1.06630000 
347.61 	2.92939900 	1.06342200 
349.20 	2.91139600 	1.06162100 
350.80 	2.89439400 	1.06078500 
352.39 	2.87840000 	1.06080600 
353.98 	2.86341500 	1.06157900 
355.57 	2.84943200 	1.06300400 
357.16 	2.83644100 	1.06498400 
358.75 	2.82442400 	1.06742700 
360.35 	2.81335600 	1.07024600 
361.94 	2.80321100 	1.07335700 
363.53 	2.79395500 	1.07668200 
365.12 	2.78555000 	1.08014800 
366.71 	2.77795400 	1.08368400 
368.30 	2.77112100 	1.08722800 
369.90 	2.76499900 	1.09072100 
371.49 	2.75953400 	1.09410900 
373.08 	2.75466300 	1.09734600 
374.67 	2.75031900 	1.10038900 
376.26 	2.74642000 	1.10320800 
377.86 	2.74287900 	1.10581000 
379.45 	2.73964100 	1.10821900 
381.04 	2.73666800 	1.11045500 
382.63 	2.73392700 	1.11253300 
384.22 	2.73139300 	1.11446700 
385.82 	2.72904300 	1.11627100 
387.41 	2.72685900 	1.11795600 
389.00 	2.72482300 	1.11953100 
390.59 	2.72292100 	1.12100700 
392.18 	2.72114000 	1.12239100 
393.78 	2.71946900 	1.12369300 
395.37 	2.71789600 	1.12491800 
396.96 	2.71641400 	1.12607400 
398.55 	2.71501300 	1.12716700 
400.14 	2.71368600 	1.12820300 
401.74 	2.71242800 	1.12918700 
403.33 	2.71123100 	1.13012500 
404.92 	2.71009000 	1.13102100 
406.51 	2.70900100 	1.13188000 
408.10 	2.70795900 	1.13270500 
409.70 	2.70696000 	1.13350100 
411.29 	2.70600100 	1.13427200 
412.88 	2.70507800 	1.13502000 
414.47 	2.70418900 	1.13574900 
416.06 	2.70333000 	1.13646200 
417.66 	2.70249900 	1.13716100 
419.25 	2.70169500 	1.13785000 
420.84 	2.70091500 	1.13853100 
422.43 	2.70015700 	1.13920600 
424.02 	2.69942000 	1.13987700 
425.62 	2.69870300 	1.14054700 
427.21 	2.69800400 	1.14121700 
428.80 	2.69732100 	1.14188900 
430.39 	2.69665500 	1.14256400 
431.98 	2.69600400 	1.14324600 
433.58 	2.69536700 	1.14393400 
435.17 	2.69474400 	1.14463000 
436.76 	2.69413400 	1.14533600 
438.35 	2.69353600 	1.14605200 
439.94 	2.69295000 	1.14678000 
441.54 	2.69237600 	1.14752200 
443.13 	2.69181300 	1.14827700 
444.72 	2.69126200 	1.14904700 
446.31 	2.69072000 	1.14983300 
447.90 	2.69019000 	1.15063500 
449.50 	2.68967000 	1.15145400 
451.09 	2.68916100 	1.15229100 
452.68 	2.68866200 	1.15314600 
454.27 	2.68817300 	1.15401900 
455.86 	2.68769400 	1.15491200 
457.46 	2.68722600 	1.15582500 
459.05 	2.68676700 	1.15675800 
460.64 	2.68631900 	1.15771100 
462.23 	2.68588200 	1.15868500 
463.82 	2.68545500 	1.15968100 
465.41 	2.68503800 	1.16069700 
467.01 	2.68463200 	1.16173600 
468.60 	2.68423700 	1.16279600 
470.19 	2.68385200 	1.16387800 
471.78 	2.68347900 	1.16498300 
473.37 	2.68311600 	1.16610900 
474.96 	2.68276500 	1.16725900 
476.56 	2.68242500 	1.16843000 
478.15 	2.68209800 	1.16962400 
479.74 	2.68178200 	1.17084100 
481.33 	2.68147800 	1.17208100 
482.92 	2.68118500 	1.17334300 
484.51 	2.68090600 	1.17462700 
486.11 	2.68063900 	1.17593500 
487.70 	2.68038500 	1.17726400 
489.29 	2.68014400 	1.17861600 
490.88 	2.67991700 	1.17999100 
492.47 	2.67970200 	1.18138800 
494.06 	2.67950200 	1.18280700 
495.65 	2.67931500 	1.18424800 
497.25 	2.67914200 	1.18571000 
498.84 	2.67898400 	1.18719500 
500.43 	2.67884000 	1.18870100 
502.02 	2.67871100 	1.19022900 
503.61 	2.67859600 	1.19177700 
505.20 	2.67849800 	1.19334700 
506.79 	2.67841400 	1.19493800 
508.38 	2.67834600 	1.19654900 
509.97 	2.67829300 	1.19818100 
511.57 	2.67825700 	1.19983300 
513.16 	2.67823700 	1.20150500 
514.75 	2.67823300 	1.20319600 
516.34 	2.67824600 	1.20490700 
517.93 	2.67827600 	1.20663700 
519.52 	2.67832300 	1.20838600 
521.11 	2.67838600 	1.21015400 
522.70 	2.67846800 	1.21194100 
524.29 	2.67856700 	1.21374500 
525.88 	2.67868400 	1.21556700 
527.47 	2.67881900 	1.21740700 
529.07 	2.67897200 	1.21926400 
530.66 	2.67914400 	1.22113800 
532.25 	2.67933500 	1.22302800 
533.84 	2.67954500 	1.22493500 
535.43 	2.67977300 	1.22685800 
537.02 	2.68002200 	1.22879600 
538.61 	2.68029000 	1.23075000 
540.20 	2.68057700 	1.23271900 
541.79 	2.68088500 	1.23470200 
543.38 	2.68121400 	1.23670000 
544.97 	2.68156300 	1.23871100 
546.56 	2.68193400 	1.24073600 
548.15 	2.68232600 	1.24277300 
549.74 	2.68274100 	1.24482200 
551.33 	2.68317700 	1.24688200 
552.92 	2.68363600 	1.24895200 
554.51 	2.68411700 	1.25103100 
556.10 	2.68461900 	1.25311900 
557.69 	2.68514400 	1.25521600 
559.28 	2.68569000 	1.25731900 
560.87 	2.68625800 	1.25943000 
562.46 	2.68684700 	1.26154600 
564.05 	2.68745700 	1.26366900 
565.64 	2.68808800 	1.26579600 
567.23 	2.68873900 	1.26792800 
568.82 	2.68941100 	1.27006400 
570.41 	2.69010400 	1.27220400 
572.00 	2.69081600 	1.27434800 
573.59 	2.69154800 	1.27649300 
575.18 	2.69229900 	1.27864200 
576.77 	2.69307000 	1.28079200 
578.35 	2.69385900 	1.28294300 
579.94 	2.69466700 	1.28509600 
581.53 	2.69549300 	1.28725000 
583.12 	2.69633700 	1.28940400 
584.71 	2.69720000 	1.29155800 
586.30 	2.69807900 	1.29371200 
587.89 	2.69897600 	1.29586500 
589.48 	2.69988900 	1.29801700 
591.07 	2.70081900 	1.30016900 
592.65 	2.70176500 	1.30231800 
594.24 	2.70272700 	1.30446600 
595.83 	2.70370500 	1.30661200 
597.42 	2.70469800 	1.30875600 
599.01 	2.70570700 	1.31089700 
600.60 	2.70673000 	1.31303600 
602.19 	2.70776700 	1.31517100 
603.77 	2.70881900 	1.31730400 
605.36 	2.70988500 	1.31943300 
606.95 	2.71096400 	1.32155800 
608.54 	2.71205600 	1.32368000 
610.13 	2.71316200 	1.32579800 
611.71 	2.71428000 	1.32791200 
613.30 	2.71541000 	1.33002100 
614.89 	2.71655300 	1.33212600 
616.48 	2.71770800 	1.33422700 
618.07 	2.71887400 	1.33632200 
619.65 	2.72005100 	1.33841300 
621.24 	2.72124000 	1.34049900 
622.83 	2.72243900 	1.34258000 
624.42 	2.72364800 	1.34465500 
626.00 	2.72486800 	1.34672600 
627.59 	2.72609700 	1.34879000 
629.18 	2.72733600 	1.35085000 
630.76 	2.72858500 	1.35290300 
632.35 	2.72984200 	1.35495100 
633.94 	2.73110800 	1.35699300 
635.53 	2.73238300 	1.35902900 
637.11 	2.73366600 	1.36106000 
638.70 	2.73495700 	1.36308400 
640.29 	2.73625500 	1.36510200 
641.87 	2.73756100 	1.36711400 
643.46 	2.73887400 	1.36911900 
645.05 	2.74019500 	1.37111900 
646.63 	2.74152100 	1.37311200 
648.22 	2.74285400 	1.37509900 
649.80 	2.74419400 	1.37707900 
651.39 	2.74553900 	1.37905400 
652.98 	2.74689000 	1.38102100 
654.56 	2.74824600 	1.38298200 
656.15 	2.74960700 	1.38493700 
657.73 	2.75097300 	1.38688600 
659.32 	2.75234400 	1.38882700 
660.91 	2.75371900 	1.39076300 
662.49 	2.75509900 	1.39269100 
664.08 	2.75648200 	1.39461400 
665.66 	2.75786900 	1.39653000 
667.25 	2.75925900 	1.39843900 
668.83 	2.76065200 	1.40034200 
670.42 	2.76204900 	1.40223800 
672.00 	2.76344800 	1.40412800 
673.59 	2.76484900 	1.40601100 
675.17 	2.76625200 	1.40788800 
676.76 	2.76765800 	1.40975900 
678.34 	2.76906500 	1.41162400 
679.93 	2.77047300 	1.41348200 
681.51 	2.77188300 	1.41533400 
683.10 	2.77329300 	1.41717900 
684.68 	2.77470500 	1.41901900 
686.26 	2.77611600 	1.42085200 
687.85 	2.77752800 	1.42267900 
689.43 	2.77893900 	1.42450100 
691.02 	2.78035000 	1.42631600 
692.60 	2.78176100 	1.42812600 
694.18 	2.78317000 	1.42993000 
695.77 	2.78457900 	1.43172800 
697.35 	2.78598500 	1.43352100 
698.93 	2.78739000 	1.43530800 
700.52 	2.78879200 	1.43709000 
702.10 	2.79019200 	1.43886700 
703.68 	2.79158900 	1.44063800 
705.27 	2.79298300 	1.44240500 
706.85 	2.79437200 	1.44416700 
708.43 	2.79575700 	1.44592500 
710.02 	2.79713700 	1.44768000 
711.60 	2.79851300 	1.44943200 
713.18 	2.79988300 	1.45118200 
714.76 	2.80124900 	1.45292900 
716.35 	2.80260900 	1.45467600 
717.93 	2.80396400 	1.45642100 
719.51 	2.80531500 	1.45816600 
721.09 	2.80666000 	1.45991000 
722.68 	2.80800100 	1.46165500 
724.26 	2.80933700 	1.46340000 
725.84 	2.81066800 	1.46514600 
727.42 	2.81199500 	1.46689300 
729.00 	2.81331700 	1.46864200 
730.58 	2.81463500 	1.47039200 
732.17 	2.81594900 	1.47214400 
733.75 	2.81725900 	1.47389900 
735.33 	2.81856500 	1.47565600 
736.91 	2.81986700 	1.47741500 
738.49 	2.82116600 	1.47917800 
740.07 	2.82246100 	1.48094400 
741.65 	2.82375400 	1.48271300 
743.23 	2.82504200 	1.48448500 
744.81 	2.82632900 	1.48626100 
746.39 	2.82761200 	1.48804100 
747.97 	2.82889300 	1.48982500 
749.55 	2.83017100 	1.49161300 
751.13 	2.83144700 	1.49340500 
752.71 	2.83272100 	1.49520200 
754.29 	2.83399300 	1.49700300 
755.87 	2.83526300 	1.49880800 
757.45 	2.83653200 	1.50061900 
759.03 	2.83780000 	1.50243400 
760.61 	2.83906600 	1.50425400 
762.19 	2.84033100 	1.50607900 
763.77 	2.84159500 	1.50790900 
765.35 	2.84285800 	1.50974500 
766.93 	2.84412100 	1.51158500 
768.51 	2.84538300 	1.51343100 
770.08 	2.84664600 	1.51528200 
771.66 	2.84790800 	1.51713900 
773.24 	2.84917000 	1.51900100 
774.82 	2.85043200 	1.52086800 
776.40 	2.85169500 	1.52274100 
777.98 	2.85295800 	1.52462000 
779.55 	2.85422300 	1.52650400 
781.13 	2.85548800 	1.52839300 
782.71 	2.85675400 	1.53028900 
784.29 	2.85802100 	1.53218900 
785.86 	2.85928900 	1.53409600 
787.44 	2.86055900 	1.53600800 
789.02 	2.86183100 	1.53792600 
790.60 	2.86310500 	1.53984900 
792.17 	2.86438000 	1.54177800 
793.75 	2.86565800 	1.54371300 
795.33 	2.86693700 	1.54565300 
796.90 	2.86821900 	1.54759900 
798.48 	2.86950400 	1.54955100 
800.06 	2.87079100 	1.55150800 
801.63 	2.87208100 	1.55347000 
803.21 	2.87337400 	1.55543800 
804.78 	2.87467000 	1.55741200 
806.36 	2.87596900 	1.55939100 
807.94 	2.87727100 	1.56137500 
809.51 	2.87857700 	1.56336500 
811.09 	2.87988600 	1.56536100 
812.66 	2.88119900 	1.56736100 
814.24 	2.88251500 	1.56936700 
815.81 	2.88383600 	1.57137800 
817.39 	2.88516000 	1.57339400 
818.96 	2.88648900 	1.57541600 
820.54 	2.88782100 	1.57744200 
822.11 	2.88915800 	1.57947400 
823.68 	2.89050000 	1.58151000 
825.26 	2.89184600 	1.58355200 
826.83 	2.89319700 	1.58559800 
828.41 	2.89455200 	1.58764900 
829.98 	2.89591200 	1.58970500 
831.55 	2.89727800 	1.59176600 
833.13 	2.89864800 	1.59383200 
834.70 	2.90002300 	1.59590100 
836.27 	2.90140400 	1.59797600 
837.85 	2.90279000 	1.60005500 
839.42 	2.90418100 	1.60213800 
840.99 	2.90557800 	1.60422600 
842.57 	2.90698000 	1.60631800 
844.14 	2.90838800 	1.60841400 
845.71 	2.90980200 	1.61051500 
847.28 	2.91122200 	1.61261900 
848.85 	2.91264700 	1.61472700 
850.43 	2.91407800 	1.61683900 
852.00 	2.91551600 	1.61895600 
853.57 	2.91696000 	1.62107600 
855.14 	2.91840900 	1.62319900 
856.71 	2.91986600 	1.62532700 
858.28 	2.92132800 	1.62745700 
859.85 	2.92279700 	1.62959100 
861.43 	2.92427200 	1.63172900 
863.00 	2.92575400 	1.63387000 
864.57 	2.92724300 	1.63601500 
866.14 	2.92873800 	1.63816200 
867.71 	2.93023900 	1.64031300 
869.28 	2.93174800 	1.64246600 
870.85 	2.93326400 	1.64462300 
872.42 	2.93478600 	1.64678200 
873.99 	2.93631500 	1.64894400 
875.56 	2.93785200 	1.65110900 
877.13 	2.93939500 	1.65327700 
878.69 	2.94094600 	1.65544700 
880.26 	2.94250300 	1.65762000 
881.83 	2.94406800 	1.65979500 
883.40 	2.94564100 	1.66197200 
884.97 	2.94722000 	1.66415100 
886.54 	2.94880700 	1.66633300 
888.11 	2.95040100 	1.66851700 
889.67 	2.95200300 	1.67070200 
891.24 	2.95361200 	1.67289000 
892.81 	2.95522800 	1.67508000 
894.38 	2.95685200 	1.67727100 
895.94 	2.95848400 	1.67946400 
897.51 	2.96012400 	1.68165900 
899.08 	2.96177100 	1.68385500 
900.65 	2.96342500 	1.68605200 
902.21 	2.96508800 	1.68825100 
903.78 	2.96675800 	1.69045100 
905.35 	2.96843600 	1.69265200 
906.91 	2.97012200 	1.69485500 
908.48 	2.97181600 	1.69705800 
910.04 	2.97351700 	1.69926300 
911.61 	2.97522700 	1.70146800 
913.17 	2.97694400 	1.70367400 
914.74 	2.97867000 	1.70588100 
916.31 	2.98040300 	1.70808900 
917.87 	2.98214500 	1.71029700 
919.44 	2.98389400 	1.71250500 
921.00 	2.98565200 	1.71471500 
922.56 	2.98741700 	1.71692400 
924.13 	2.98919100 	1.71913300 
925.69 	2.99097300 	1.72134300 
927.26 	2.99276300 	1.72355300 
928.82 	2.99456100 	1.72576300 
930.38 	2.99636800 	1.72797300 
931.95 	2.99818300 	1.73018300 
933.51 	3.00000500 	1.73239200 
935.07 	3.00183700 	1.73460100 
936.64 	3.00367600 	1.73681000 
938.20 	3.00552400 	1.73901800 
939.76 	3.00738000 	1.74122700 
941.33 	3.00924400 	1.74343400 
942.89 	3.01111700 	1.74564000 
944.45 	3.01299800 	1.74784600 
946.01 	3.01488800 	1.75005100 
947.57 	3.01678600 	1.75225600 
949.14 	3.01869200 	1.75445900 
950.70 	3.02060700 	1.75666100 
952.26 	3.02253000 	1.75886200 
953.82 	3.02446100 	1.76106200 
955.38 	3.02640200 	1.76326100 
956.94 	3.02835000 	1.76545800 
958.50 	3.03030700 	1.76765400 
960.06 	3.03227300 	1.76984800 
961.62 	3.03424700 	1.77204100 
963.18 	3.03622900 	1.77423200 
964.74 	3.03822000 	1.77642200 
966.30 	3.04022000 	1.77861000 
967.86 	3.04222800 	1.78079500 
969.42 	3.04424500 	1.78297900 
970.98 	3.04627100 	1.78516100 
972.54 	3.04830500 	1.78734100 
974.10 	3.05034800 	1.78951900 
975.65 	3.05240000 	1.79169400 
977.21 	3.05446000 	1.79386700 
978.77 	3.05652900 	1.79603800 
980.33 	3.05860700 	1.79820600 
981.89 	3.06069400 	1.80037200 
983.44 	3.06278900 	1.80253500 
985.00 	3.06489300 	1.80469500 
986.56 	3.06700600 	1.80685300 
988.11 	3.06912800 	1.80900800 
989.67 	3.07125900 	1.81115900 
991.23 	3.07339900 	1.81330800 
992.78 	3.07554800 	1.81545400 
994.34 	3.07770600 	1.81759600 
995.90 	3.07987300 	1.81973500 
997.45 	3.08205000 	1.82187100 
999.01 	3.08423500 	1.82400300 
