; From SOPRA S.A. http://www.sopra-sa.com/indices.htm
; Filename    Symbol               Range (nm)     Description
; DIAM        C                   213     2479    Cubic Carbon (diamond)
; lambda/nm       n         k
213.77	2.78000000	0.00500000
215.63	2.77763500	0.00400600
217.52	2.76882400	0.00287900
219.44	2.75547900	0.00176900
221.40	2.73947400	0.00083900
223.40	2.72270700	0.00024600
225.43	2.70787300	0.00004200
227.50	2.69688100	0.00004600
229.60	2.68978200	0.00000000
231.75	2.68580300	0.00000000
233.93	2.68071600	0.00000000
236.16	2.67372700	0.00000000
238.43	2.66634100	0.00000000
240.75	2.65892500	0.00000000
243.11	2.65176500	0.00000000
245.52	2.64501600	0.00000000
247.97	2.63891900	0.00000000
250.48	2.63328300	0.00000000
253.03	2.62799500	0.00000000
255.64	2.62270700	0.00000000
258.30	2.61707000	0.00000000
261.02	2.61095800	0.00000000
263.80	2.60415800	0.00000000
266.63	2.59714200	0.00000000
269.53	2.59020200	0.00000000
272.49	2.58369700	0.00000000
275.52	2.57784800	0.00000000
278.62	2.57259500	0.00000000
281.78	2.56787200	0.00000000
285.02	2.56353500	0.00000000
288.34	2.55934200	0.00000000
291.73	2.55485800	0.00000000
295.20	2.55004200	0.00000000
298.76	2.54488900	0.00000000
302.40	2.53955600	0.00000000
306.14	2.53414600	0.00000000
309.96	2.52899200	0.00000000
313.89	2.52464700	0.00000000
317.91	2.52054700	0.00000000
322.04	2.51632500	0.00000000
326.28	2.51208400	0.00000000
330.63	2.50781800	0.00000000
335.10	2.50378300	0.00000000
339.69	2.50008500	0.00000000
344.40	2.49643600	0.00000000
349.25	2.49274200	0.00000000
354.24	2.48904700	0.00000000
359.38	2.48535200	0.00000000
364.66	2.48160800	0.00000000
370.11	2.47792700	0.00000000
375.71	2.47459500	0.00000000
381.49	2.47147800	0.00000000
387.45	2.46832500	0.00000000
393.60	2.46515800	0.00000000
399.95	2.46192900	0.00000000
406.51	2.45884500	0.00000000
413.28	2.45615600	0.00000000
420.29	2.45357600	0.00000000
427.54	2.45093700	0.00000000
435.04	2.44829800	0.00000000
442.80	2.44565900	0.00000000
450.86	2.44302000	0.00000000
459.20	2.44038100	0.00000000
467.87	2.43770200	0.00000000
476.87	2.43505100	0.00000000
486.22	2.43271100	0.00000000
495.94	2.43063300	0.00000000
506.06	2.42854900	0.00000000
516.60	2.42643700	0.00000000
527.60	2.42432600	0.00000000
539.07	2.42221500	0.00000000
551.05	2.42010400	0.00000000
563.57	2.41799200	0.00000000
576.68	2.41581800	0.00000000
590.41	2.41381000	0.00000000
604.81	2.41218700	0.00000000
619.93	2.41066100	0.00000000
635.82	2.40907700	0.00000000
652.55	2.40749400	0.00000000
670.19	2.40591000	0.00000000
688.81	2.40432700	0.00000000
708.49	2.40274400	0.00000000
729.32	2.40111700	0.00000000
751.43	2.39953000	0.00000000
774.91	2.39826700	0.00000000
799.90	2.39725100	0.00000000
826.57	2.39627300	0.00000000
855.07	2.39518600	0.00000000
885.61	2.39366400	0.00000000
918.41	2.39207200	0.00000000
953.73	2.39087000	0.00000000
991.88	2.38996500	0.00000000
1033.21	2.38944700	0.00000000
1078.13	2.38885300	0.00000000
1127.14	2.38782800	0.00000000
1180.81	2.38669400	0.00000000
1239.85	2.38560000	0.00000000
1305.11	2.38478700	0.00000000
1377.61	2.38429000	0.00000000
1458.65	2.38347100	0.00000000
1549.81	2.38237200	0.00000000
1653.14	2.38192600	0.00000000
1771.22	2.38198900	0.00000000
1907.46	2.38169900	0.00000000
2066.42	2.38112600	0.00000000
2254.28	2.38052300	0.00000000
2479.70	2.38003700	0.00000000
