; From SOPRA S.A. http://www.sopra-sa.com/indices.htm
; Filename    Symbol               Range (nm)     Description
; CCL4        CCl4                250      900    Hexachoromethane
; lambda/nm       n         k
250.00	1.49808800	0.00000000
260.00	1.49053200	0.00000000
270.00	1.48399600	0.00000000
280.00	1.47829800	0.00000000
290.00	1.47329600	0.00000000
300.00	1.46887800	0.00000000
310.00	1.46495200	0.00000000
320.00	1.46144700	0.00000000
330.00	1.45830300	0.00000000
340.00	1.45547100	0.00000000
350.00	1.45290900	0.00000000
360.00	1.45058300	0.00000000
370.00	1.44846500	0.00000000
380.00	1.44653100	0.00000000
390.00	1.44475800	0.00000000
400.00	1.44312900	0.00000000
410.00	1.44163000	0.00000000
420.00	1.44024500	0.00000000
430.00	1.43896400	0.00000000
440.00	1.43777500	0.00000000
450.00	1.43667200	0.00000000
460.00	1.43564400	0.00000000
470.00	1.43468600	0.00000000
480.00	1.43379200	0.00000000
490.00	1.43295400	0.00000000
500.00	1.43217000	0.00000000
510.00	1.43143400	0.00000000
520.00	1.43074200	0.00000000
530.00	1.43009100	0.00000000
540.00	1.42947800	0.00000000
550.00	1.42890000	0.00000000
560.00	1.42835400	0.00000000
570.00	1.42783700	0.00000000
580.00	1.42734900	0.00000000
590.00	1.42688600	0.00000000
600.00	1.42644700	0.00000000
610.00	1.42603000	0.00000000
620.00	1.42563400	0.00000000
630.00	1.42525700	0.00000000
640.00	1.42489900	0.00000000
650.00	1.42455700	0.00000000
660.00	1.42423200	0.00000000
670.00	1.42392100	0.00000000
680.00	1.42362500	0.00000000
690.00	1.42334100	0.00000000
700.00	1.42307000	0.00000000
710.00	1.42281100	0.00000000
720.00	1.42256300	0.00000000
730.00	1.42232500	0.00000000
740.00	1.42209700	0.00000000
750.00	1.42187800	0.00000000
760.00	1.42166900	0.00000000
770.00	1.42146700	0.00000000
780.00	1.42127300	0.00000000
790.00	1.42108700	0.00000000
800.00	1.42090800	0.00000000
810.00	1.42073600	0.00000000
820.00	1.42057000	0.00000000
830.00	1.42041000	0.00000000
840.00	1.42025600	0.00000000
850.00	1.42010700	0.00000000
860.00	1.41996400	0.00000000
870.00	1.41982600	0.00000000
880.00	1.41969200	0.00000000
890.00	1.41956300	0.00000000
900.00	1.41943900	0.00000000
