; Refractive index spectrum for Cr by Johnson
;
; P. B. Johnson and R. W. Christy. Optical constants of transition metals: Ti, V, Cr, Mn, Fe, Co, Ni, and Pd, <a href="http://dx.doi.org/10.1103/PhysRevB.9.5056"><i>Phys. Rev. B</i> <b>9</b>, 5056-5070 (1974)</a>
;
; Room temperature
;
; lambda/nm    n     k
188.00 	1.28000000 	1.64000000 
192.00 	1.31000000 	1.65000000 
195.00 	1.35000000 	1.68000000 
199.00 	1.39000000 	1.70000000 
203.00 	1.43000000 	1.70000000 
207.00 	1.46000000 	1.71000000 
212.00 	1.46000000 	1.72000000 
216.00 	1.47000000 	1.72000000 
221.00 	1.45000000 	1.73000000 
226.00 	1.43000000 	1.74000000 
231.00 	1.40000000 	1.77000000 
237.00 	1.38000000 	1.80000000 
243.00 	1.36000000 	1.85000000 
249.00 	1.36000000 	1.91000000 
255.00 	1.37000000 	1.97000000 
262.00 	1.38000000 	2.03000000 
269.00 	1.39000000 	2.08000000 
276.00 	1.43000000 	2.15000000 
284.00 	1.45000000 	2.21000000 
292.00 	1.48000000 	2.28000000 
301.00 	1.53000000 	2.34000000 
311.00 	1.58000000 	2.40000000 
320.00 	1.65000000 	2.47000000 
332.00 	1.69000000 	2.53000000 
342.00 	1.76000000 	2.58000000 
354.00 	1.84000000 	2.64000000 
368.00 	1.87000000 	2.69000000 
381.00 	1.92000000 	2.74000000 
397.00 	2.00000000 	2.83000000 
413.00 	2.08000000 	2.93000000 
431.00 	2.19000000 	3.04000000 
451.00 	2.33000000 	3.14000000 
471.00 	2.51000000 	3.24000000 
496.00 	2.75000000 	3.30000000 
521.00 	2.94000000 	3.33000000 
549.00 	3.18000000 	3.33000000 
582.00 	3.22000000 	3.30000000 
617.00 	3.17000000 	3.30000000 
659.00 	3.09000000 	3.34000000 
704.00 	3.05000000 	3.39000000 
756.00 	3.08000000 	3.42000000 
821.00 	3.20000000 	3.48000000 
892.00 	3.30000000 	3.52000000 
984.00 	3.41000000 	3.57000000 
1088.00 	3.58000000 	3.58000000 
1216.00 	3.67000000 	3.60000000 
1393.00 	3.69000000 	3.84000000 
1610.00 	3.66000000 	4.31000000 
1937.00 	3.71000000 	5.04000000 
