; From SOPRA S.A. http://www.sopra-sa.com/indices.htm
; Filename    Symbol               Range (nm)     Description
; SI110       Si                  230      840    Crystalline Silicon (110 orientation)
; lambda/nm       n         k
230.00	1.26538100	3.50132200
232.00	1.59479300	3.45589400
234.00	1.70447000	3.42593000
236.00	1.69470600	3.41322600
238.00	1.67215100	3.42004300
240.00	1.69562000	3.44500600
242.00	1.68887500	3.47779800
244.00	1.70009000	3.52401700
246.00	1.70150500	3.58380200
248.00	1.69840500	3.64478500
250.00	1.71335600	3.68977500
252.00	1.75063900	3.70539800
254.00	1.75516000	3.84212100
256.00	1.77009800	3.93661400
258.00	1.80029600	4.02590800
260.00	1.83451000	4.11801800
262.00	1.88010100	4.22868700
264.00	1.93375400	4.34910200
266.00	2.00168000	4.48239600
268.00	2.08811600	4.61521000
270.00	2.20099900	4.75577100
272.00	2.34933700	4.89567700
274.00	2.52107800	5.02346300
276.00	2.71095200	5.12794000
278.00	2.93401000	5.21548000
280.00	3.15858100	5.28146200
282.00	3.39713600	5.31952200
284.00	3.66572000	5.34941400
286.00	3.95747500	5.33856900
288.00	4.26690700	5.25931800
290.00	4.54787500	5.10398100
292.00	4.77808800	4.89267900
294.00	4.93636900	4.65959800
296.00	5.02535800	4.43800900
298.00	5.07860700	4.23888200
300.00	5.10084500	4.07101900
302.00	5.11702300	3.92398300
304.00	5.11935600	3.79368800
306.00	5.11316300	3.68779000
308.00	5.11043600	3.59367300
310.00	5.10889800	3.51163300
312.00	5.10471100	3.44456100
314.00	5.10979100	3.38216000
316.00	5.11492900	3.32440900
318.00	5.11986500	3.27694100
320.00	5.13097600	3.23183900
322.00	5.13632000	3.19288500
324.00	5.15235600	3.14991200
326.00	5.16849700	3.11703700
328.00	5.18871700	3.08099000
330.00	5.21086100	3.04499900
332.00	5.22432000	3.01349600
334.00	5.24663100	2.98659900
336.00	5.26672200	2.96465500
338.00	5.29089900	2.94450200
340.00	5.31545600	2.92554300
342.00	5.34866100	2.90443400
344.00	5.38157500	2.89228900
346.00	5.42036500	2.88414400
348.00	5.46409300	2.87805400
350.00	5.51791800	2.87632300
352.00	5.58479200	2.88164300
354.00	5.66827200	2.89295600
356.00	5.78306200	2.90010500
358.00	5.92493400	2.89747400
360.00	6.10315700	2.86080800
362.00	6.30080400	2.77618400
364.00	6.50269000	2.63161900
366.00	6.67527300	2.42373700
368.00	6.79627800	2.17350800
370.00	6.85574700	1.90434500
372.00	6.85631700	1.63230000
374.00	6.80620900	1.38228400
376.00	6.71751600	1.16371200
378.00	6.60277300	0.98239100
380.00	6.47805200	0.83454400
382.00	6.34670000	0.71289200
384.00	6.22977800	0.62419300
386.00	6.12413100	0.55526900
388.00	6.02312900	0.49582300
390.00	5.93018700	0.44643200
392.00	5.84456600	0.40492800
394.00	5.76700300	0.37042600
396.00	5.69199600	0.33964200
398.00	5.62155100	0.31399900
400.00	5.55868500	0.29255000
402.00	5.49195800	0.27178400
404.00	5.43301200	0.25387500
406.00	5.37861000	0.23834300
408.00	5.32748500	0.22406700
410.00	5.27882500	0.21136500
412.00	5.23257100	0.19899400
414.00	5.18830200	0.18891000
416.00	5.14419100	0.17976600
418.00	5.10469600	0.17176600
420.00	5.06805100	0.16340200
422.00	5.03497100	0.15641700
424.00	5.00037100	0.14944800
426.00	4.96783300	0.14257100
428.00	4.93716600	0.13686100
430.00	4.90805000	0.13130600
432.00	4.87909500	0.12612800
434.00	4.85058000	0.12146300
436.00	4.82431100	0.11696600
438.00	4.80497800	0.11257800
440.00	4.78064500	0.10791800
442.00	4.75488000	0.10471800
444.00	4.73152400	0.10083100
446.00	4.70934200	0.09757900
448.00	4.68643800	0.09418700
450.00	4.66429500	0.09217500
452.00	4.64469700	0.08849300
454.00	4.62461300	0.08568200
456.00	4.60464700	0.08316000
458.00	4.58504800	0.08081800
460.00	4.56615500	0.07850900
462.00	4.54836600	0.07606500
464.00	4.53117100	0.07368900
466.00	4.51419000	0.07150400
468.00	4.49754300	0.06949700
470.00	4.48148300	0.06765300
472.00	4.46620800	0.06598700
474.00	4.45131900	0.06438100
476.00	4.43642800	0.06269000
478.00	4.42166900	0.06096100
480.00	4.40730500	0.05926700
482.00	4.39354300	0.05764700
484.00	4.38002900	0.05613000
486.00	4.36626900	0.05482100
488.00	4.35264800	0.05363500
490.00	4.33980200	0.05243800
492.00	4.32829400	0.05111000
494.00	4.31739300	0.04978900
496.00	4.30678800	0.04853500
498.00	4.29627500	0.04736600
500.00	4.28555200	0.04631500
502.00	4.27423500	0.04543700
504.00	4.26300600	0.04457000
506.00	4.25244700	0.04352500
508.00	4.24241500	0.04238800
510.00	4.23262800	0.04130600
512.00	4.22290400	0.04038800
514.00	4.21346500	0.03954200
516.00	4.20456700	0.03875900
518.00	4.19600200	0.03800600
520.00	4.18739600	0.03723100
522.00	4.17839600	0.03638000
524.00	4.16963800	0.03554300
526.00	4.16183800	0.03480500
528.00	4.15459000	0.03413100
530.00	4.14720900	0.03345000
532.00	4.13913200	0.03270500
534.00	4.13101200	0.03199800
536.00	4.12324700	0.03140800
538.00	4.11577000	0.03092500
540.00	4.10843200	0.03054700
542.00	4.10116100	0.03030000
544.00	4.09401600	0.03001100
546.00	4.08701700	0.02942900
548.00	4.08016800	0.02868600
550.00	4.07350200	0.02800200
552.00	4.06707000	0.02755900
554.00	4.06064600	0.02713500
556.00	4.05388000	0.02652900
558.00	4.04699200	0.02586300
560.00	4.04033100	0.02534500
562.00	4.03417500	0.02515700
564.00	4.02830900	0.02503800
566.00	4.02280200	0.02481200
568.00	4.01744600	0.02449300
570.00	4.01191400	0.02412700
572.00	4.00587900	0.02372800
574.00	3.99980400	0.02325800
576.00	3.99402100	0.02259800
578.00	3.98846600	0.02188700
580.00	3.98299900	0.02134400
582.00	3.97753900	0.02117400
584.00	3.97218200	0.02111200
586.00	3.96698500	0.02102400
588.00	3.96194000	0.02087500
590.00	3.95702500	0.02063100
592.00	3.95223000	0.02022900
594.00	3.94757100	0.01975200
596.00	3.94310500	0.01919200
598.00	3.93875700	0.01864600
600.00	3.93440200	0.01826700
602.00	3.92991700	0.01820500
604.00	3.92550000	0.01826800
606.00	3.92136200	0.01840900
608.00	3.91738400	0.01851800
610.00	3.91335700	0.01841400
612.00	3.90910700	0.01789100
614.00	3.90486100	0.01734300
616.00	3.90075300	0.01717600
618.00	3.89678600	0.01721100
620.00	3.89293900	0.01711600
622.00	3.88921400	0.01662600
624.00	3.88564000	0.01612800
626.00	3.88240000	0.01596100
628.00	3.87925400	0.01598500
630.00	3.87578700	0.01596400
632.00	3.87158700	0.01572700
634.00	3.86740300	0.01540800
636.00	3.86393600	0.01496900
638.00	3.86093400	0.01453700
640.00	3.85796300	0.01434100
642.00	3.85472600	0.01462800
644.00	3.85140900	0.01487300
646.00	3.84795900	0.01445400
648.00	3.84449200	0.01370800
650.00	3.84120000	0.01321800
652.00	3.83828100	0.01347000
654.00	3.83538700	0.01381500
656.00	3.83215100	0.01375500
658.00	3.82875600	0.01344800
660.00	3.82550700	0.01319900
662.00	3.82265200	0.01323000
664.00	3.81991200	0.01322600
666.00	3.81712300	0.01292000
668.00	3.81431600	0.01242300
670.00	3.81157300	0.01190500
672.00	3.80895600	0.01147500
674.00	3.80631100	0.01116200
676.00	3.80346100	0.01116200
678.00	3.80048800	0.01131400
680.00	3.79750100	0.01135800
682.00	3.79456200	0.01106700
684.00	3.79178600	0.01070800
686.00	3.78946800	0.01042100
688.00	3.78738900	0.01021500
690.00	3.78517400	0.01007900
692.00	3.78247900	0.01002500
694.00	3.77984500	0.01006700
696.00	3.77776200	0.01031600
698.00	3.77603300	0.01062800
700.00	3.77436200	0.01078600
702.00	3.77257600	0.01059600
704.00	3.77050400	0.01023500
706.00	3.76760100	0.00966200
708.00	3.76428000	0.00906000
710.00	3.76119600	0.00869200
712.00	3.75890000	0.00881800
714.00	3.75687500	0.00916500
716.00	3.75498200	0.00978300
718.00	3.75309300	0.01037600
720.00	3.75101600	0.01045100
722.00	3.74851400	0.00947900
724.00	3.74601900	0.00845200
726.00	3.74385100	0.00831300
728.00	3.74199800	0.00872700
730.00	3.74047100	0.00911500
732.00	3.73938700	0.00908100
734.00	3.73815100	0.00888600
736.00	3.73594300	0.00840100
738.00	3.73318700	0.00789500
740.00	3.73057900	0.00786800
742.00	3.72865800	0.00885700
744.00	3.72697400	0.00967400
746.00	3.72544700	0.00888100
748.00	3.72395600	0.00728400
750.00	3.72232100	0.00627800
752.00	3.72033900	0.00704000
754.00	3.71830400	0.00797500
756.00	3.71648500	0.00782100
758.00	3.71475200	0.00702400
760.00	3.71281900	0.00638000
762.00	3.71040400	0.00645300
764.00	3.70824400	0.00670900
766.00	3.70740400	0.00696400
768.00	3.70715300	0.00714500
770.00	3.70623800	0.00715100
772.00	3.70355000	0.00683000
774.00	3.70069500	0.00648700
776.00	3.69922500	0.00641100
778.00	3.69831900	0.00650600
780.00	3.69643700	0.00660400
782.00	3.69221700	0.00659600
784.00	3.68813400	0.00653100
786.00	3.68657900	0.00636200
788.00	3.68661000	0.00614900
790.00	3.68662300	0.00599600
792.00	3.68548000	0.00600500
794.00	3.68399500	0.00601000
796.00	3.68198700	0.00583200
798.00	3.68004000	0.00557200
800.00	3.67919600	0.00538900
802.00	3.68058200	0.00540800
804.00	3.68182300	0.00554000
806.00	3.68053600	0.00582400
808.00	3.67760300	0.00616400
810.00	3.67451700	0.00643500
812.00	3.67229000	0.00652400
814.00	3.67039800	0.00645500
816.00	3.66896600	0.00606000
818.00	3.66786100	0.00553800
820.00	3.66695300	0.00523300
822.00	3.66617500	0.00548600
824.00	3.66511600	0.00568900
826.00	3.66290200	0.00515500
828.00	3.66017200	0.00427700
830.00	3.65787200	0.00372300
832.00	3.65674500	0.00405200
834.00	3.65655600	0.00455400
836.00	3.65742100	0.00497300
838.00	3.65945500	0.00505300
840.00	3.66277200	0.00453700
