; From SOPRA S.A. http://www.sopra-sa.com/indices.htm
; Filename    Symbol               Range (nm)     Description
; SI100_2     Si                  230      840    Crystalline Silicon (100 orientation)
; lambda/nm       n         k
230.00	1.52474000	3.62383500
232.00	1.64355400	3.49551400
234.00	1.69363000	3.43673800
236.00	1.70026600	3.42520200
238.00	1.68954600	3.43865100
240.00	1.68208600	3.45175500
242.00	1.67915600	3.46000200
244.00	1.68310600	3.51011200
246.00	1.68258000	3.56350700
248.00	1.68431800	3.62042700
250.00	1.69491900	3.68029800
252.00	1.71158600	3.74609200
254.00	1.73574500	3.82204400
256.00	1.74741500	3.90751200
258.00	1.77824700	3.99606500
260.00	1.80576200	4.09501700
262.00	1.84740300	4.20295000
264.00	1.90089000	4.31412500
266.00	1.96678800	4.44307800
268.00	2.04371100	4.58143500
270.00	2.15405600	4.72432900
272.00	2.29679300	4.86819200
274.00	2.46613700	4.99711400
276.00	2.65159300	5.11220300
278.00	2.87104600	5.20665500
280.00	3.09978800	5.27456300
282.00	3.33033800	5.32035200
284.00	3.60146000	5.35363800
286.00	3.89556600	5.35112800
288.00	4.20301200	5.28143700
290.00	4.49059400	5.12703100
292.00	4.72924900	4.91355200
294.00	4.88765300	4.68183900
296.00	4.98159000	4.46422900
298.00	5.03317800	4.26641900
300.00	5.06448000	4.09358700
302.00	5.07841200	3.94522700
304.00	5.07993600	3.82128900
306.00	5.07719400	3.71397700
308.00	5.07367200	3.62100200
310.00	5.07673900	3.53956200
312.00	5.07415800	3.46822700
314.00	5.08066500	3.40652900
316.00	5.08703100	3.35155300
318.00	5.09130700	3.30461800
320.00	5.10630700	3.25721800
322.00	5.11214100	3.21939700
324.00	5.12355300	3.18084200
326.00	5.14194000	3.14340700
328.00	5.16594200	3.10926900
330.00	5.18355500	3.07677900
332.00	5.19873800	3.04666900
334.00	5.22577700	3.01594500
336.00	5.25029100	2.99212600
338.00	5.27429800	2.96866900
340.00	5.30124300	2.94737600
342.00	5.33389400	2.93183600
344.00	5.36548800	2.91917100
346.00	5.40149700	2.91026100
348.00	5.44479300	2.90416800
350.00	5.49781400	2.90400500
352.00	5.56231500	2.90891900
354.00	5.64408100	2.91876900
356.00	5.75221600	2.92459800
358.00	5.88599900	2.92787000
360.00	6.05491700	2.90308600
362.00	6.25366100	2.82993000
364.00	6.46276500	2.70095900
366.00	6.65189400	2.51185800
368.00	6.79771300	2.26735100
370.00	6.88426700	1.99101800
372.00	6.90837200	1.70132300
374.00	6.86590000	1.43181800
376.00	6.77071900	1.19175800
378.00	6.65163100	0.99827300
380.00	6.52020000	0.84580700
382.00	6.37989200	0.71942900
384.00	6.25957900	0.62819200
386.00	6.15173400	0.55648700
388.00	6.04901100	0.49780300
390.00	5.95256600	0.44776600
392.00	5.86415300	0.40687200
394.00	5.78789900	0.37281200
396.00	5.71087100	0.34172700
398.00	5.63774700	0.31526300
400.00	5.57227900	0.29176700
402.00	5.50920900	0.27116100
404.00	5.44970400	0.25433600
406.00	5.39534200	0.23906900
408.00	5.34126200	0.22435800
410.00	5.29125000	0.21201600
412.00	5.24459500	0.20015400
414.00	5.20121300	0.18973000
416.00	5.15892600	0.18034800
418.00	5.11706400	0.17127400
420.00	5.08015000	0.16300500
422.00	5.04451900	0.15631400
424.00	5.00875100	0.14913600
426.00	4.97646100	0.14317500
428.00	4.94439700	0.13711300
430.00	4.91571900	0.13137200
432.00	4.88744400	0.12617000
434.00	4.86015800	0.12157900
436.00	4.83602000	0.11708600
438.00	4.81035400	0.11365500
440.00	4.78542200	0.10863200
442.00	4.76108800	0.10565200
444.00	4.73755700	0.10179000
446.00	4.71353500	0.09847000
448.00	4.69082300	0.09521400
450.00	4.66869200	0.09119800
452.00	4.64783000	0.08855900
454.00	4.62755600	0.08586700
456.00	4.60791300	0.08337700
458.00	4.58882400	0.08105600
460.00	4.57017000	0.07889000
462.00	4.55180400	0.07687500
464.00	4.53400900	0.07483500
466.00	4.51709900	0.07242400
468.00	4.50090600	0.06989000
470.00	4.48516800	0.06764200
472.00	4.46970300	0.06603700
474.00	4.45451300	0.06461500
476.00	4.43941400	0.06307000
478.00	4.42453200	0.06145900
480.00	4.41009600	0.05991000
482.00	4.39631800	0.05849500
484.00	4.38282000	0.05711300
486.00	4.36911300	0.05567600
488.00	4.35554200	0.05422600
490.00	4.34268600	0.05283600
492.00	4.33105300	0.05156200
494.00	4.31996100	0.05035200
496.00	4.30906200	0.04918100
498.00	4.29824600	0.04805700
500.00	4.28735400	0.04700700
502.00	4.27613900	0.04606000
504.00	4.26512700	0.04510000
506.00	4.25485200	0.04394700
508.00	4.24511300	0.04272200
510.00	4.23558100	0.04162300
512.00	4.22603200	0.04082500
514.00	4.21654100	0.04011000
516.00	4.20697200	0.03934600
518.00	4.19745700	0.03854500
520.00	4.18820000	0.03773300
522.00	4.17937800	0.03690900
524.00	4.17082200	0.03612300
526.00	4.16243600	0.03545100
528.00	4.15425600	0.03485600
530.00	4.14640400	0.03429100
532.00	4.13901900	0.03372900
534.00	4.13158300	0.03310600
536.00	4.12329100	0.03222900
538.00	4.11469200	0.03127100
540.00	4.10670700	0.03051900
542.00	4.10013400	0.03023500
544.00	4.09394100	0.03005500
546.00	4.08745100	0.02973400
548.00	4.08076000	0.02929400
550.00	4.07408300	0.02879600
552.00	4.06752200	0.02825300
554.00	4.06096900	0.02767700
556.00	4.05432900	0.02708600
558.00	4.04767300	0.02648500
560.00	4.04108300	0.02585700
562.00	4.03460600	0.02517500
564.00	4.02839400	0.02462400
566.00	4.02283100	0.02452700
568.00	4.01760900	0.02465200
570.00	4.01223500	0.02461500
572.00	4.00627700	0.02408000
574.00	4.00021600	0.02347300
576.00	3.99426000	0.02310300
578.00	3.98847600	0.02287800
580.00	3.98292800	0.02261400
582.00	3.97772200	0.02217100
584.00	3.97275100	0.02178800
586.00	3.96801000	0.02175100
588.00	3.96342300	0.02187000
590.00	3.95888000	0.02183100
592.00	3.95428000	0.02137100
594.00	3.94968000	0.02078600
596.00	3.94507100	0.02018900
598.00	3.94046800	0.01964900
600.00	3.93588700	0.01925700
602.00	3.93134500	0.01912800
604.00	3.92684200	0.01909900
606.00	3.92239400	0.01910900
608.00	3.91799400	0.01908800
610.00	3.91362300	0.01893000
612.00	3.90926700	0.01851100
614.00	3.90497200	0.01803800
616.00	3.90074500	0.01768100
618.00	3.89664400	0.01740500
620.00	3.89276400	0.01714500
622.00	3.88920500	0.01687000
624.00	3.88580100	0.01658700
626.00	3.88242700	0.01624300
628.00	3.87910000	0.01590600
630.00	3.87590400	0.01569700
632.00	3.87292600	0.01574000
634.00	3.86979800	0.01579700
636.00	3.86600200	0.01562900
638.00	3.86182900	0.01533200
640.00	3.85774000	0.01507900
642.00	3.85408300	0.01500300
644.00	3.85067300	0.01493100
646.00	3.84763900	0.01471600
648.00	3.84479500	0.01442400
650.00	3.84183500	0.01416700
652.00	3.83846200	0.01403100
654.00	3.83515100	0.01392800
656.00	3.83244100	0.01383800
658.00	3.82999100	0.01372600
660.00	3.82719200	0.01353600
662.00	3.82349400	0.01319200
664.00	3.81983100	0.01287600
666.00	3.81719800	0.01282300
668.00	3.81506200	0.01289200
670.00	3.81248600	0.01282200
672.00	3.80867100	0.01237900
674.00	3.80480100	0.01198200
676.00	3.80183100	0.01210200
678.00	3.79947100	0.01247400
680.00	3.79720200	0.01264200
682.00	3.79468900	0.01222400
684.00	3.79215900	0.01173300
686.00	3.78967100	0.01160100
688.00	3.78719800	0.01163900
690.00	3.78469500	0.01148500
692.00	3.78213600	0.01083300
694.00	3.77950600	0.01023300
696.00	3.77666100	0.01022100
698.00	3.77377900	0.01057700
700.00	3.77116800	0.01093600
702.00	3.76913000	0.01104800
704.00	3.76712900	0.01103200
706.00	3.76455200	0.01082800
708.00	3.76175600	0.01049900
710.00	3.75938100	0.01012100
712.00	3.75799000	0.00974800
714.00	3.75665100	0.00946000
716.00	3.75455900	0.00943300
718.00	3.75196200	0.00957000
720.00	3.74930500	0.00969000
722.00	3.74687000	0.00963900
724.00	3.74449900	0.00966300
726.00	3.74205000	0.01016500
728.00	3.73974700	0.01077200
730.00	3.73801000	0.01082800
732.00	3.73728200	0.00970600
734.00	3.73657800	0.00850400
736.00	3.73493300	0.00822300
738.00	3.73265100	0.00851800
740.00	3.73027400	0.00879000
742.00	3.72816200	0.00863100
744.00	3.72604300	0.00831900
746.00	3.72362100	0.00777300
748.00	3.72125100	0.00720300
750.00	3.71958900	0.00694500
752.00	3.71931000	0.00733800
754.00	3.71899900	0.00785400
756.00	3.71731200	0.00813700
758.00	3.71466000	0.00818900
760.00	3.71167800	0.00804400
762.00	3.70867200	0.00766600
764.00	3.70618000	0.00716600
766.00	3.70555800	0.00650100
768.00	3.70583200	0.00588600
770.00	3.70538800	0.00568100
772.00	3.70282500	0.00627200
774.00	3.69987100	0.00693600
776.00	3.69763000	0.00704400
778.00	3.69592600	0.00674800
780.00	3.69439800	0.00629500
782.00	3.69290600	0.00579100
784.00	3.69137900	0.00544700
786.00	3.68954500	0.00561900
788.00	3.68758700	0.00618800
790.00	3.68577300	0.00703000
792.00	3.68430900	0.00814400
794.00	3.68317000	0.00890200
796.00	3.68277900	0.00831600
798.00	3.68261500	0.00691000
800.00	3.68181800	0.00548300
802.00	3.67956000	0.00461400
804.00	3.67710100	0.00420900
806.00	3.67549800	0.00480700
808.00	3.67439900	0.00593600
810.00	3.67314000	0.00688100
812.00	3.67123500	0.00704000
814.00	3.66933300	0.00682800
816.00	3.66799300	0.00614700
818.00	3.66696000	0.00528500
820.00	3.66573200	0.00467500
822.00	3.66386500	0.00474000
824.00	3.66226500	0.00500500
826.00	3.66220100	0.00525500
828.00	3.66275500	0.00543300
830.00	3.66228600	0.00548100
832.00	3.65927000	0.00530000
834.00	3.65637200	0.00500500
836.00	3.65475700	0.00463500
838.00	3.65558900	0.00422700
840.00	3.66003400	0.00382100
