; From SOPRA S.A. http://www.sopra-sa.com/indices.htm
; Filename    Symbol               Range (nm)     Description
; SI111       Si                  230      840    Crystalline Silicon (111 orientation)
; lambda/nm       n         k
230.00	1.43039000	3.52257400
232.00	1.60047200	3.44662400
234.00	1.68109700	3.41469700
236.00	1.69996200	3.41138900
238.00	1.68464400	3.42029300
240.00	1.66492000	3.43232600
242.00	1.66477800	3.46248300
244.00	1.66832300	3.50700600
246.00	1.66336800	3.55714700
248.00	1.66642900	3.61590900
250.00	1.67889800	3.67719900
252.00	1.68961000	3.75293600
254.00	1.71188300	3.82946300
256.00	1.72759600	3.90768100
258.00	1.75568400	4.00092400
260.00	1.78596900	4.09421300
262.00	1.82678400	4.20482200
264.00	1.88021800	4.31735400
266.00	1.94539000	4.45249200
268.00	2.02110600	4.59015200
270.00	2.12917700	4.72599700
272.00	2.26755800	4.87355700
274.00	2.43722100	5.00415900
276.00	2.62568400	5.11520800
278.00	2.83557700	5.21398800
280.00	3.05421400	5.28609200
282.00	3.28123500	5.34277200
284.00	3.54088700	5.39223800
286.00	3.83813400	5.40549100
288.00	4.16266500	5.35918300
290.00	4.47284200	5.22293900
292.00	4.74305500	5.00745700
294.00	4.92262800	4.76026800
296.00	5.02339200	4.52633100
298.00	5.08754000	4.31384500
300.00	5.11720300	4.12810300
302.00	5.12811100	3.97222400
304.00	5.12788700	3.83635900
306.00	5.12167900	3.72403000
308.00	5.11549600	3.62613800
310.00	5.11483000	3.53909500
312.00	5.10794200	3.46822000
314.00	5.10873700	3.40524100
316.00	5.11162200	3.34660900
318.00	5.11333200	3.29791300
320.00	5.12232700	3.25180700
322.00	5.13006600	3.21125900
324.00	5.14172200	3.17180500
326.00	5.15856500	3.13723100
328.00	5.18159100	3.10338000
330.00	5.20014300	3.06807200
332.00	5.21065100	3.04096500
334.00	5.23577800	3.01199200
336.00	5.25859800	2.98719800
338.00	5.28016700	2.96838900
340.00	5.30486100	2.95046800
342.00	5.33396200	2.93550000
344.00	5.36585300	2.92373000
346.00	5.40537700	2.91610900
348.00	5.45054300	2.91348400
350.00	5.50563900	2.91967300
352.00	5.57313000	2.92962200
354.00	5.65960700	2.94393300
356.00	5.77829500	2.95525800
358.00	5.92675200	2.95744300
360.00	6.11459000	2.92367700
362.00	6.33026400	2.83932100
364.00	6.54570600	2.68489600
366.00	6.72819100	2.46539700
368.00	6.85519200	2.19788500
370.00	6.91532400	1.91195000
372.00	6.91081900	1.62665800
374.00	6.85150600	1.36842900
376.00	6.75105000	1.14729200
378.00	6.62932200	0.96479500
380.00	6.49899100	0.81857000
382.00	6.36149900	0.69956400
384.00	6.24543400	0.61396100
386.00	6.13798300	0.54400000
388.00	6.03360600	0.48552400
390.00	5.93957500	0.43719900
392.00	5.85177900	0.39563600
394.00	5.77561000	0.36258200
396.00	5.70089900	0.33277800
398.00	5.62874200	0.30731500
400.00	5.56147100	0.28590800
402.00	5.50008200	0.26646800
404.00	5.44025600	0.24860400
406.00	5.38466700	0.23332300
408.00	5.33222700	0.21937900
410.00	5.28351400	0.20692000
412.00	5.23670400	0.19519800
414.00	5.19273500	0.18513000
416.00	5.14956200	0.17617400
418.00	5.10983700	0.16748200
420.00	5.07300200	0.16019500
422.00	5.03739200	0.15343400
424.00	5.00205500	0.14553100
426.00	4.96900500	0.13908600
428.00	4.93777500	0.13393500
430.00	4.90867800	0.12869200
432.00	4.88032900	0.12365700
434.00	4.85335100	0.11847000
436.00	4.82984000	0.11403100
438.00	4.80346400	0.11059400
440.00	4.77857800	0.10603900
442.00	4.75437200	0.10262200
444.00	4.72956300	0.09917000
446.00	4.70642700	0.09566800
448.00	4.68368200	0.09272800
450.00	4.66329900	0.08978800
452.00	4.64174700	0.08669100
454.00	4.62138200	0.08403700
456.00	4.60165700	0.08165800
458.00	4.58252000	0.07943800
460.00	4.56390300	0.07722600
462.00	4.54572600	0.07484400
464.00	4.52808400	0.07249100
466.00	4.51104200	0.07026500
468.00	4.49457900	0.06817600
470.00	4.47870100	0.06622000
472.00	4.46345900	0.06441100
474.00	4.44847700	0.06276200
476.00	4.43318200	0.06139600
478.00	4.41790200	0.06015100
480.00	4.40319800	0.05875200
482.00	4.38954400	0.05693600
484.00	4.37631900	0.05511900
486.00	4.36297600	0.05366000
488.00	4.34978300	0.05243700
490.00	4.33723200	0.05123300
492.00	4.32573700	0.04989200
494.00	4.31461000	0.04858000
496.00	4.30328900	0.04736600
498.00	4.29190100	0.04627400
500.00	4.28070400	0.04534800
502.00	4.26985000	0.04465800
504.00	4.25917500	0.04400400
506.00	4.24854200	0.04318600
508.00	4.23803500	0.04225900
510.00	4.22777300	0.04132400
512.00	4.21783700	0.04045000
514.00	4.20828300	0.03956900
516.00	4.19930600	0.03859700
518.00	4.19076000	0.03761700
520.00	4.18242600	0.03676200
522.00	4.17413000	0.03615200
524.00	4.16594000	0.03564200
526.00	4.15786000	0.03519500
528.00	4.14983300	0.03473500
530.00	4.14172900	0.03413700
532.00	4.13339500	0.03325800
534.00	4.12526600	0.03235700
536.00	4.11790000	0.03164900
538.00	4.11099300	0.03109100
540.00	4.10403100	0.03060900
542.00	4.09660500	0.03017200
544.00	4.08913300	0.02973600
546.00	4.08177900	0.02921700
548.00	4.07459700	0.02865000
550.00	4.06765900	0.02810100
552.00	4.06108100	0.02761800
554.00	4.05462800	0.02714300
556.00	4.04803700	0.02664200
558.00	4.04144300	0.02612100
560.00	4.03508900	0.02558300
562.00	4.02917200	0.02501400
564.00	4.02341300	0.02452300
566.00	4.01761700	0.02429700
568.00	4.01181100	0.02420300
570.00	4.00605400	0.02402300
572.00	4.00037000	0.02356900
574.00	3.99476400	0.02305500
576.00	3.98924200	0.02257400
578.00	3.98383000	0.02216200
580.00	3.97856900	0.02187400
582.00	3.97350000	0.02179700
584.00	3.96856000	0.02173100
586.00	3.96375900	0.02144500
588.00	3.95901600	0.02106100
590.00	3.95419800	0.02080300
592.00	3.94916400	0.02087100
594.00	3.94417200	0.02091500
596.00	3.93951000	0.02056100
598.00	3.93501900	0.02000400
600.00	3.93039700	0.01957700
602.00	3.92536200	0.01955500
604.00	3.92049000	0.01959400
606.00	3.91642700	0.01952300
608.00	3.91284400	0.01930000
610.00	3.90917800	0.01884300
612.00	3.90498100	0.01800400
614.00	3.90075100	0.01726400
616.00	3.89686000	0.01726700
618.00	3.89313500	0.01765500
620.00	3.88923100	0.01781600
622.00	3.88484300	0.01723900
624.00	3.88060000	0.01657900
626.00	3.87721900	0.01632100
628.00	3.87432600	0.01630800
630.00	3.87129400	0.01624500
632.00	3.86762500	0.01592300
634.00	3.86383700	0.01559000
636.00	3.86014700	0.01541400
638.00	3.85660700	0.01534100
640.00	3.85329500	0.01527400
642.00	3.85035200	0.01514400
644.00	3.84741000	0.01502800
646.00	3.84413800	0.01503400
648.00	3.84058100	0.01505900
650.00	3.83676100	0.01492400
652.00	3.83258500	0.01446300
654.00	3.82873200	0.01394800
656.00	3.82634200	0.01357200
658.00	3.82465300	0.01332700
660.00	3.82236700	0.01318200
662.00	3.81834700	0.01314400
664.00	3.81418500	0.01317800
666.00	3.81104900	0.01329200
668.00	3.80867500	0.01342600
670.00	3.80660000	0.01350500
672.00	3.80461400	0.01346200
674.00	3.80249400	0.01328400
676.00	3.79974500	0.01279400
678.00	3.79659000	0.01219100
680.00	3.79336700	0.01181200
682.00	3.79029200	0.01198300
684.00	3.78747300	0.01217300
686.00	3.78540700	0.01188300
688.00	3.78368900	0.01132400
690.00	3.78162100	0.01086500
692.00	3.77855600	0.01078200
694.00	3.77553300	0.01079200
696.00	3.77366800	0.01072000
698.00	3.77231900	0.01062600
700.00	3.77036300	0.01065300
702.00	3.76683500	0.01093100
704.00	3.76315100	0.01109900
706.00	3.76046000	0.01068200
708.00	3.75839700	0.00995200
710.00	3.75630200	0.00935600
712.00	3.75372500	0.00925700
714.00	3.75108700	0.00928400
716.00	3.74857800	0.00919000
718.00	3.74617800	0.00908300
720.00	3.74382000	0.00919100
722.00	3.74146500	0.00971700
724.00	3.73923500	0.01019800
726.00	3.73717300	0.01013500
728.00	3.73537500	0.00974000
730.00	3.73405600	0.00938900
732.00	3.73348900	0.00937500
734.00	3.73286200	0.00933600
736.00	3.73133300	0.00896200
738.00	3.72914600	0.00841300
740.00	3.72668800	0.00793700
742.00	3.72414300	0.00771900
744.00	3.72181600	0.00767700
746.00	3.72037900	0.00802900
748.00	3.71944800	0.00846200
750.00	3.71840300	0.00843600
752.00	3.71675800	0.00741200
754.00	3.71489200	0.00635800
756.00	3.71292000	0.00616300
758.00	3.71084500	0.00652900
760.00	3.70860000	0.00693500
762.00	3.70610300	0.00704200
764.00	3.70380900	0.00702800
766.00	3.70233400	0.00677300
768.00	3.70138000	0.00645300
770.00	3.70049000	0.00636000
772.00	3.69934400	0.00678200
774.00	3.69797100	0.00726900
776.00	3.69596900	0.00750700
778.00	3.69372600	0.00751400
780.00	3.69193800	0.00733800
782.00	3.69128800	0.00695900
784.00	3.69046800	0.00652600
786.00	3.68792800	0.00610100
788.00	3.68458400	0.00582100
790.00	3.68199400	0.00593300
792.00	3.68146700	0.00673900
794.00	3.68134600	0.00752200
796.00	3.68071300	0.00756100
798.00	3.67948400	0.00709000
800.00	3.67754900	0.00649600
802.00	3.67456000	0.00601500
804.00	3.67159800	0.00566500
806.00	3.66964600	0.00571900
808.00	3.66862000	0.00599200
810.00	3.66844200	0.00619700
812.00	3.66932000	0.00609600
814.00	3.66990200	0.00588100
816.00	3.66856000	0.00556000
818.00	3.66582000	0.00522000
820.00	3.66250100	0.00499600
822.00	3.65902300	0.00503400
824.00	3.65596100	0.00509300
826.00	3.65455700	0.00484800
828.00	3.65418000	0.00454900
830.00	3.65368400	0.00466600
832.00	3.65209200	0.00565500
834.00	3.65095500	0.00659300
836.00	3.65092100	0.00705100
838.00	3.65263500	0.00660200
840.00	3.65674400	0.00481500
