;  Optical constants for cubic CsI
; 
;   taken from:
;
;   'Handbook of Optical Constants of Solids II', Ed. by Edward D. Palik,
;   Academic Press, Inc., 1991.
;   
;    Lambda (nm)            n            k
;-----------------------------------------
109.72	0.86000000	0.44500000
110.70	0.88000000	0.45300000
111.69	0.91000000	0.47300000
112.71	0.93000000	0.47800000
113.74	0.93000000	0.47800000
114.80	0.93000000	0.48600000
115.87	0.93000000	0.49000000
116.96	0.93000000	0.50600000
118.08	0.91000000	0.53100000
119.21	0.92000000	0.57600000
120.37	0.93000000	0.62900000
121.55	0.95000000	0.69400000
122.75	0.98000000	0.77100000
123.98	1.04000000	0.85300000
125.23	1.10000000	0.93900000
126.51	1.16000000	1.01600000
127.81	1.22000000	1.04500000
129.15	1.27000000	1.02900000
130.51	1.31000000	1.01200000
131.89	1.34000000	1.03700000
133.31	1.37000000	1.06100000
134.76	1.39000000	1.07300000
136.24	1.40000000	1.09800000
137.76	1.40000000	1.12700000
139.30	1.40000000	1.14300000
140.89	1.39000000	1.18400000
142.51	1.42000000	1.29800000
144.16	1.46000000	1.42000000
145.86	1.53000000	1.49800000
147.60	1.72000000	1.71400000
149.37	1.95000000	1.82400000
151.19	2.12000000	1.82400000
153.06	2.41000000	1.85700000
154.97	2.56000000	1.76300000
156.94	2.73000000	1.67800000
158.95	2.95000000	1.57100000
161.01	3.15000000	1.34700000
163.13	3.08000000	0.82400000
165.31	2.73000000	0.64900000
167.54	2.39000000	0.61200000
169.84	2.13000000	0.69000000
172.19	2.01000000	0.87800000
174.62	2.11000000	1.25300000
177.11	2.38000000	1.46100000
179.68	2.81000000	1.37600000
182.32	2.84000000	1.13900000
185.05	3.05000000	1.10200000
187.85	3.18000000	0.92200000
190.74	2.96000000	0.51400000
193.72	2.79000000	0.37100000
196.79	2.66000000	0.40400000
199.97	2.55000000	0.42400000
203.25	2.53000000	0.54300000
206.63	2.86000000	0.78400000
210.14	3.05000000	0.49000000
213.76	2.81000000	0.11800000
217.51	2.59000000	0.20800000
221.39	2.99000000	0.40800000
225.42	2.97000000	0.19600000
229.59	2.76000000	0.00000000
233.93	2.48000000	0.00000000
238.42	2.33000000	0.00000000
243.10	2.21000000	0.00000000
247.96	2.14000000	0.00000000
250.01	2.20938000	0.00000000
251.99	2.19248000	0.00000000
254.01	2.17676000	0.00000000
256.00	2.16208000	0.00000000
257.97	2.14834000	0.00000000
259.97	2.13545000	0.00000000
262.00	2.12333000	0.00000000
264.01	2.11190000	0.00000000
265.99	2.10110000	0.00000000
268.01	2.09089000	0.00000000
269.99	2.08121000	0.00000000
272.01	2.07202000	0.00000000
273.99	2.06328000	0.00000000
276.00	2.05496000	0.00000000
277.98	2.04703000	0.00000000
279.99	2.03946000	0.00000000
281.97	2.03222000	0.00000000
283.97	2.02530000	0.00000000
286.00	2.01867000	0.00000000
287.99	2.01232000	0.00000000
290.01	2.00622000	0.00000000
291.99	2.00037000	0.00000000
294.00	1.99474000	0.00000000
295.97	1.98932000	0.00000000
297.96	1.98411000	0.00000000
299.98	1.97909000	0.00000000
304.99	1.96731000	0.00000000
309.95	1.95651000	0.00000000
314.99	1.94658000	0.00000000
319.95	1.93741000	0.00000000
324.98	1.92893000	0.00000000
330.00	1.92106000	0.00000000
334.99	1.91373000	0.00000000
339.95	1.90690000	0.00000000
344.96	1.90051000	0.00000000
350.03	1.89453000	0.00000000
354.94	1.88891000	0.00000000
359.99	1.88363000	0.00000000
364.97	1.87866000	0.00000000
369.98	1.87397000	0.00000000
375.01	1.86954000	0.00000000
379.96	1.86535000	0.00000000
385.03	1.86138000	0.00000000
390.00	1.85762000	0.00000000
394.97	1.85404000	0.00000000
399.94	1.85064000	0.00000000
409.99	1.84433000	0.00000000
419.99	1.83859000	0.00000000
430.04	1.83336000	0.00000000
439.96	1.82857000	0.00000000
450.02	1.82417000	0.00000000
460.04	1.82012000	0.00000000
469.98	1.81637000	0.00000000
479.99	1.81291000	0.00000000
490.04	1.80970000	0.00000000
499.92	1.80672000	0.00000000
510.00	1.80393000	0.00000000
520.05	1.80134000	0.00000000
530.06	1.79891000	0.00000000
539.98	1.79664000	0.00000000
550.04	1.79451000	0.00000000
559.98	1.79250000	0.00000000
570.02	1.79062000	0.00000000
579.89	1.78884000	0.00000000
590.10	1.78717000	0.00000000
600.10	1.78559000	0.00000000
619.90	1.78268000	0.00000000
640.06	1.78006000	0.00000000
659.82	1.77770000	0.00000000
680.09	1.77557000	0.00000000
700.06	1.77363000	0.00000000
719.98	1.77186000	0.00000000
740.18	1.77025000	0.00000000
760.15	1.76877000	0.00000000
779.75	1.76741000	0.00000000
799.87	1.76615000	0.00000000
819.97	1.76500000	0.00000000
839.97	1.76392000	0.00000000
859.78	1.76293000	0.00000000
879.91	1.76201000	0.00000000
899.71	1.76115000	0.00000000
919.73	1.76035000	0.00000000
939.95	1.75960000	0.00000000
959.60	1.75890000	0.00000000
980.08	1.75824000	0.00000000
999.84	1.75736000	0.00000000
1049.79	1.75624000	0.00000000
1100.09	1.75505000	0.00000000
1150.09	1.75401000	0.00000000
1200.19	1.75310000	0.00000000
1249.92	1.75230000	0.00000000
1299.99	1.75160000	0.00000000
1349.96	1.75097000	0.00000000
1399.95	1.75040000	0.00000000
1449.89	1.74990000	0.00000000
1499.70	1.74944000	0.00000000
1549.94	1.74903000	0.00000000
1599.95	1.74866000	0.00000000
1649.99	1.74832000	0.00000000
1699.99	1.74801000	0.00000000
1749.89	1.74772000	0.00000000
1799.94	1.74746000	0.00000000
1849.90	1.74721000	0.00000000
1899.79	1.74699000	0.00000000
1949.98	1.74678000	0.00000000
2000.00	1.74659000	0.00000000
2049.93	1.74641000	0.00000000
2099.93	1.74625000	0.00000000
2149.82	1.74609000	0.00000000
2199.79	1.74594000	0.00000000
2250.09	1.74581000	0.00000000
2299.76	1.74568000	0.00000000
2349.89	1.74555000	0.00000000
2399.92	1.74544000	0.00000000
2449.71	1.74533000	0.00000000
