; From SOPRA S.A. http://www.sopra-sa.com/indices.htm
; Filename    Symbol               Range (nm)     Description
; GAAS111     GaAs                234      840    Gallium Arsenide (111)
; lambda/nm       n         k
234.00	1.52390000	3.37010000
236.00	1.57230000	3.44730000
238.00	1.58760000	3.56670000
240.00	1.65530000	3.66130000
242.00	1.76010000	3.78910000
244.00	1.89070000	3.92310000
246.00	2.07510000	4.04440000
248.00	2.29620000	4.13910000
250.00	2.54660000	4.17750000
252.00	2.79260000	4.16680000
254.00	3.02110000	4.09170000
256.00	3.22280000	3.98290000
258.00	3.37860000	3.86210000
260.00	3.50970000	3.74840000
262.00	3.61740000	3.61700000
264.00	3.68730000	3.49340000
266.00	3.75460000	3.38880000
268.00	3.82230000	3.27250000
270.00	3.86560000	3.17520000
272.00	3.90040000	3.07870000
274.00	3.95530000	2.98380000
276.00	3.99580000	2.88430000
278.00	4.03650000	2.77160000
280.00	4.05260000	2.64830000
282.00	4.04920000	2.53880000
284.00	4.02910000	2.42970000
286.00	4.00030000	2.34080000
288.00	3.96470000	2.26210000
290.00	3.92660000	2.20520000
292.00	3.89310000	2.14560000
294.00	3.85160000	2.09910000
296.00	3.81450000	2.06140000
298.00	3.77710000	2.03080000
300.00	3.74340000	2.00420000
302.00	3.70900000	1.98520000
304.00	3.68090000	1.96950000
306.00	3.65450000	1.95820000
308.00	3.62930000	1.94830000
310.00	3.60970000	1.93820000
312.00	3.59100000	1.93140000
314.00	3.57510000	1.92790000
316.00	3.55200000	1.92930000
318.00	3.54680000	1.92630000
320.00	3.53500000	1.92650000
322.00	3.52680000	1.92570000
324.00	3.52380000	1.92400000
326.00	3.51190000	1.93050000
328.00	3.50670000	1.93490000
330.00	3.50140000	1.93880000
332.00	3.50090000	1.94130000
334.00	3.50370000	1.94580000
336.00	3.49900000	1.95330000
338.00	3.50110000	1.95940000
340.00	3.50390000	1.96620000
342.00	3.50930000	1.97290000
344.00	3.51240000	1.98170000
346.00	3.51520000	1.99370000
348.00	3.52040000	2.00390000
350.00	3.52990000	2.01060000
352.00	3.53760000	2.02140000
354.00	3.54590000	2.03200000
356.00	3.55290000	2.04520000
358.00	3.56600000	2.05560000
360.00	3.58110000	2.06770000
362.00	3.59340000	2.08120000
364.00	3.60790000	2.09560000
366.00	3.62650000	2.10990000
368.00	3.63920000	2.12510000
370.00	3.66110000	2.14150000
372.00	3.68150000	2.15640000
374.00	3.70490000	2.17400000
376.00	3.72960000	2.19220000
378.00	3.75950000	2.20810000
380.00	3.79040000	2.23380000
382.00	3.83270000	2.25820000
384.00	3.87280000	2.28570000
386.00	3.91930000	2.30440000
388.00	3.98630000	2.32360000
390.00	4.06410000	2.33600000
392.00	4.15130000	2.33120000
394.00	4.24010000	2.30350000
396.00	4.31580000	2.25870000
398.00	4.37610000	2.20370000
400.00	4.42080000	2.14740000
402.00	4.45160000	2.09320000
404.00	4.47470000	2.04700000
406.00	4.48920000	2.00900000
408.00	4.50490000	1.97990000
410.00	4.51650000	1.96100000
412.00	4.53370000	1.94790000
414.00	4.55910000	1.94250000
416.00	4.59130000	1.94820000
418.00	4.63900000	1.95910000
420.00	4.72390000	1.96270000
422.00	4.82570000	1.94070000
424.00	4.93310000	1.88890000
426.00	5.06360000	1.73560000
428.00	5.11480000	1.61500000
430.00	5.13480000	1.49120000
432.00	5.13410000	1.37100000
434.00	5.11480000	1.26730000
436.00	5.08900000	1.18040000
438.00	5.05730000	1.10330000
440.00	5.02020000	1.03450000
442.00	4.98030000	0.97290000
444.00	4.94170000	0.91900000
446.00	4.90470000	0.87130000
448.00	4.86720000	0.82960000
450.00	4.84220000	0.79440000
452.00	4.80936100	0.76154000
454.00	4.77776700	0.73141600
456.00	4.74730200	0.70377200
458.00	4.71785100	0.67835200
460.00	4.68930000	0.65490000
462.00	4.66119700	0.63290200
464.00	4.63414700	0.61265500
466.00	4.60859700	0.59440800
468.00	4.58463800	0.57798800
470.00	4.56200000	0.56280000
472.00	4.54095800	0.54818600
474.00	4.52064300	0.53434900
476.00	4.50016500	0.52123500
478.00	4.47940200	0.50875800
480.00	4.45900000	0.49680000
482.00	4.43949100	0.48497200
484.00	4.42056200	0.47378400
486.00	4.40191700	0.46369100
488.00	4.38376100	0.45468500
490.00	4.36680000	0.44630000
492.00	4.35246100	0.43807500
494.00	4.33911000	0.43025400
496.00	4.32577900	0.42295000
498.00	4.31211900	0.41608900
500.00	4.29840000	0.40940000
502.00	4.28424400	0.40246500
504.00	4.27034400	0.39563800
506.00	4.25736900	0.38902300
508.00	4.24535300	0.38273400
510.00	4.23370000	0.37690000
512.00	4.22167300	0.37202800
514.00	4.20996200	0.36741200
516.00	4.19897200	0.36247600
518.00	4.18877200	0.35715600
520.00	4.17910000	0.35190000
522.00	4.16995500	0.34706200
524.00	4.16103700	0.34248700
526.00	4.15214500	0.33823500
528.00	4.14307100	0.33425800
530.00	4.13360000	0.33040000
532.00	4.12274200	0.32640100
534.00	4.11195600	0.32249500
536.00	4.10241900	0.31885400
538.00	4.09431100	0.31545900
540.00	4.08680000	0.31210000
542.00	4.07937700	0.30841400
544.00	4.07211000	0.30481500
546.00	4.06479300	0.30164500
548.00	4.05740200	0.29889400
550.00	4.05010000	0.29620000
552.00	4.04305900	0.29305900
554.00	4.03613300	0.28997000
556.00	4.02921100	0.28732800
558.00	4.02231500	0.28509600
560.00	4.01560000	0.28280000
562.00	4.00921900	0.27969100
564.00	4.00312900	0.27657000
566.00	3.99744900	0.27408500
568.00	3.99209900	0.27220200
570.00	3.98680000	0.27020000
572.00	3.98132200	0.26699100
574.00	3.97559500	0.26372200
576.00	3.96922500	0.26122300
578.00	3.96236200	0.25953400
580.00	3.95570000	0.25790000
582.00	3.95015000	0.25543500
584.00	3.94508900	0.25291000
586.00	3.94039600	0.25077400
588.00	3.93592400	0.24906500
590.00	3.93150000	0.24740000
592.00	3.92660500	0.24534400
594.00	3.92184900	0.24328800
596.00	3.91787300	0.24148800
598.00	3.91453400	0.23994400
600.00	3.91090000	0.23840000
602.00	3.90538700	0.23654300
604.00	3.89970200	0.23464200
606.00	3.89494100	0.23283300
608.00	3.89132600	0.23114600
610.00	3.88820000	0.22950000
612.00	3.88526800	0.22783100
614.00	3.88248000	0.22619800
616.00	3.87976900	0.22470200
618.00	3.87694500	0.22327900
620.00	3.87370000	0.22170000
622.00	3.86932300	0.21947000
624.00	3.86454900	0.21718500
626.00	3.85951700	0.21526500
628.00	3.85463800	0.21379000
630.00	3.85060000	0.21250000
632.00	3.84938800	0.21132900
634.00	3.84848000	0.21013800
636.00	3.84583100	0.20869500
638.00	3.84131000	0.20700200
640.00	3.83670000	0.20530000
642.00	3.83383900	0.20383300
644.00	3.83138200	0.20245800
646.00	3.82878000	0.20120200
648.00	3.82591600	0.20000100
650.00	3.82310000	0.19870000
652.00	3.82054000	0.19697800
654.00	3.81809200	0.19518300
656.00	3.81579100	0.19352200
658.00	3.81353800	0.19205700
660.00	3.81110000	0.19070000
662.00	3.80776100	0.18955700
664.00	3.80453100	0.18836200
666.00	3.80237800	0.18676800
668.00	3.80125700	0.18482800
670.00	3.80010000	0.18300000
672.00	3.79747200	0.18194300
674.00	3.79470000	0.18105000
676.00	3.79258400	0.18002500
678.00	3.79122000	0.17875400
680.00	3.79000000	0.17730000
682.00	3.78841600	0.17558200
684.00	3.78675200	0.17369500
686.00	3.78508500	0.17163800
688.00	3.78340200	0.16948900
690.00	3.78160000	0.16740000
692.00	3.77955000	0.16573900
694.00	3.77734900	0.16408200
696.00	3.77491500	0.16215200
698.00	3.77238100	0.15988000
700.00	3.77010000	0.15740000
702.00	3.76880800	0.15463800
704.00	3.76769200	0.15185300
706.00	3.76642900	0.14926300
708.00	3.76470200	0.14695800
710.00	3.76220000	0.14490000
712.00	3.75741800	0.14321400
714.00	3.75259700	0.14171100
716.00	3.74985600	0.14023700
718.00	3.74917600	0.13876600
720.00	3.74840000	0.13740000
722.00	3.74479900	0.13632400
724.00	3.74080200	0.13526400
726.00	3.73777000	0.13397400
728.00	3.73591700	0.13244300
730.00	3.73430000	0.13090000
732.00	3.73217400	0.12947500
734.00	3.72999100	0.12823000
736.00	3.72791300	0.12740600
738.00	3.72591900	0.12692900
740.00	3.72380000	0.12640000
742.00	3.72126700	0.12525800
744.00	3.71857800	0.12396300
746.00	3.71577900	0.12269000
748.00	3.71299100	0.12153300
750.00	3.71040000	0.12050000
752.00	3.70838600	0.11975500
754.00	3.70662100	0.11911000
756.00	3.70492600	0.11848600
758.00	3.70327700	0.11780900
760.00	3.70180000	0.11700000
762.00	3.70082200	0.11576500
764.00	3.69980500	0.11449400
766.00	3.69817000	0.11345800
768.00	3.69597300	0.11273100
770.00	3.69390000	0.11220000
772.00	3.69292800	0.11200700
774.00	3.69213200	0.11178600
776.00	3.69098700	0.11113200
778.00	3.68937800	0.11004000
780.00	3.68760000	0.10890000
782.00	3.68551200	0.10827400
784.00	3.68369600	0.10756100
786.00	3.68306100	0.10620500
788.00	3.68340200	0.10430200
790.00	3.68340000	0.10260000
792.00	3.68078800	0.10217800
794.00	3.67803200	0.10205300
796.00	3.67698800	0.10167800
798.00	3.67772000	0.10094900
800.00	3.67850000	0.10020000
802.00	3.67748800	0.09991100
804.00	3.67601200	0.09941800
806.00	3.67459300	0.09790600
808.00	3.67335100	0.09558900
810.00	3.67200000	0.09370000
812.00	3.67037300	0.09419500
814.00	3.66856600	0.09515800
816.00	3.66641100	0.09555000
818.00	3.66410200	0.09504100
820.00	3.66220000	0.09400000
822.00	3.66144600	0.09216200
824.00	3.66143700	0.09015700
826.00	3.66278100	0.08861000
828.00	3.66479500	0.08758700
830.00	3.66550000	0.08660000
832.00	3.66065300	0.08492200
834.00	3.65516200	0.08344500
836.00	3.65102600	0.08254700
838.00	3.65023900	0.08260600
840.00	3.65480000	0.08400000
