; From SOPRA S.A. http://www.sopra-sa.com/indices.htm
; Filename    Symbol               Range (nm)     Description
; GAAS100     GaAs                234      840    Gallium Arsenide (100)
; lambda/nm       n         k
234.00	1.69620000	3.44820000
236.00	1.66390000	3.53570000
238.00	1.72190000	3.65530000
240.00	1.78980000	3.76290000
242.00	1.91170000	3.91630000
244.00	2.06290000	4.05160000
246.00	2.26270000	4.16340000
248.00	2.49830000	4.23970000
250.00	2.77630000	4.26940000
252.00	3.03050000	4.22470000
254.00	3.25480000	4.11970000
256.00	3.44390000	3.98940000
258.00	3.59920000	3.85110000
260.00	3.72960000	3.71740000
262.00	3.79900000	3.57460000
264.00	3.86850000	3.45110000
266.00	3.92900000	3.33720000
268.00	3.97930000	3.22390000
270.00	4.01440000	3.12020000
272.00	4.05520000	3.02380000
274.00	4.09670000	2.92840000
276.00	4.12960000	2.83060000
278.00	4.17430000	2.70080000
280.00	4.17790000	2.58260000
282.00	4.16390000	2.46410000
284.00	4.13440000	2.36090000
286.00	4.09640000	2.27420000
288.00	4.05610000	2.19820000
290.00	4.02330000	2.13320000
292.00	3.97870000	2.07820000
294.00	3.93080000	2.03760000
296.00	3.89320000	2.00070000
298.00	3.85050000	1.97150000
300.00	3.81720000	1.94650000
302.00	3.78410000	1.92760000
304.00	3.74870000	1.91340000
306.00	3.72070000	1.90270000
308.00	3.69530000	1.89350000
310.00	3.67530000	1.88670000
312.00	3.65560000	1.87990000
314.00	3.64190000	1.87440000
316.00	3.62310000	1.87680000
318.00	3.61350000	1.87140000
320.00	3.59840000	1.87420000
322.00	3.59070000	1.87450000
324.00	3.58420000	1.87710000
326.00	3.57300000	1.88060000
328.00	3.56890000	1.88630000
330.00	3.56380000	1.89010000
332.00	3.56430000	1.89330000
334.00	3.56560000	1.89690000
336.00	3.56170000	1.90450000
338.00	3.56460000	1.90930000
340.00	3.56600000	1.91880000
342.00	3.57000000	1.92410000
344.00	3.57470000	1.93270000
346.00	3.57680000	1.94430000
348.00	3.58360000	1.95430000
350.00	3.59230000	1.96100000
352.00	3.59900000	1.97390000
354.00	3.60750000	1.98530000
356.00	3.61710000	1.99540000
358.00	3.62980000	2.00720000
360.00	3.64180000	2.01880000
362.00	3.65770000	2.03030000
364.00	3.67250000	2.04490000
366.00	3.69090000	2.05590000
368.00	3.70910000	2.07070000
370.00	3.72710000	2.08740000
372.00	3.74750000	2.10350000
374.00	3.77560000	2.11630000
376.00	3.79630000	2.13420000
378.00	3.82350000	2.15360000
380.00	3.85620000	2.17620000
382.00	3.89580000	2.19770000
384.00	3.93630000	2.22250000
386.00	3.98810000	2.24180000
388.00	4.04960000	2.25340000
390.00	4.12410000	2.26190000
392.00	4.20760000	2.25400000
394.00	4.28700000	2.23140000
396.00	4.35990000	2.18560000
398.00	4.41650000	2.13620000
400.00	4.45910000	2.08080000
402.00	4.48780000	2.03030000
404.00	4.50890000	1.98860000
406.00	4.52660000	1.95130000
408.00	4.54230000	1.92270000
410.00	4.55650000	1.90190000
412.00	4.57720000	1.88600000
414.00	4.60170000	1.87860000
416.00	4.63320000	1.88210000
418.00	4.68450000	1.88680000
420.00	4.75540000	1.88740000
422.00	4.84870000	1.86780000
424.00	4.94850000	1.81490000
426.00	5.07990000	1.67520000
428.00	5.12580000	1.56180000
430.00	5.15150000	1.43780000
432.00	5.15220000	1.32310000
434.00	5.13480000	1.22460000
436.00	5.10980000	1.13470000
438.00	5.07280000	1.05650000
440.00	5.04070000	0.99010000
442.00	5.00170000	0.92770000
444.00	4.96180000	0.87690000
446.00	4.92370000	0.82930000
448.00	4.88440000	0.78810000
450.00	4.85810000	0.75460000
452.00	4.82564700	0.72179100
454.00	4.79366400	0.69204300
456.00	4.76231700	0.66498100
458.00	4.73177300	0.64022600
460.00	4.70220000	0.61740000
462.00	4.67376800	0.59569500
464.00	4.64663200	0.57565800
466.00	4.62125600	0.55767800
468.00	4.59749700	0.54159500
470.00	4.57460000	0.52670000
472.00	4.55157700	0.51210300
474.00	4.52914200	0.49834200
476.00	4.50760400	0.48567800
478.00	4.48700000	0.47401500
480.00	4.46710000	0.46290000
482.00	4.44774600	0.45160900
484.00	4.42897500	0.44082700
486.00	4.41057800	0.43100400
488.00	4.39271300	0.42216400
490.00	4.37590000	0.41390000
492.00	4.36117900	0.40591900
494.00	4.34739000	0.39824600
496.00	4.33393000	0.39072900
498.00	4.32047900	0.38336600
500.00	4.30700000	0.37630000
502.00	4.29281500	0.36970900
504.00	4.27881100	0.36343400
506.00	4.26570400	0.35738400
508.00	4.25356000	0.35154800
510.00	4.24180000	0.34600000
512.00	4.22984800	0.34086200
514.00	4.21813400	0.33597300
516.00	4.20677500	0.33123800
518.00	4.19587000	0.32661100
520.00	4.18550000	0.32210000
522.00	4.17599400	0.31766200
524.00	4.16692700	0.31332700
526.00	4.15814400	0.30913300
528.00	4.14942900	0.30505400
530.00	4.14050000	0.30100000
532.00	4.13042300	0.29672400
534.00	4.12041400	0.29257600
536.00	4.11146300	0.28885400
538.00	4.10364200	0.28557900
540.00	4.09610000	0.28250000
542.00	4.08794700	0.27941700
544.00	4.07986200	0.27639400
546.00	4.07217300	0.27339100
548.00	4.06490900	0.27041000
550.00	4.05780000	0.26750000
552.00	4.05053800	0.26470200
554.00	4.04339600	0.26200700
556.00	4.03652500	0.25945600
558.00	4.02995300	0.25702000
560.00	4.02360000	0.25460000
562.00	4.01751700	0.25198100
564.00	4.01151000	0.24942200
566.00	4.00539800	0.24717100
568.00	3.99913300	0.24519800
570.00	3.99280000	0.24320000
572.00	3.98649200	0.24073000
574.00	3.98007200	0.23822100
576.00	3.97329000	0.23593300
578.00	3.96626900	0.23391400
580.00	3.95950000	0.23200000
582.00	3.95362700	0.23011200
584.00	3.94823700	0.22824000
586.00	3.94328600	0.22631400
588.00	3.93866500	0.22433900
590.00	3.93420000	0.22240000
592.00	3.92957200	0.22059700
594.00	3.92502400	0.21885400
596.00	3.92075400	0.21712800
598.00	3.91669300	0.21542400
600.00	3.91250000	0.21380000
602.00	3.90750600	0.21238900
604.00	3.90250300	0.21100600
606.00	3.89807300	0.20949600
608.00	3.89428600	0.20784800
610.00	3.89070000	0.20620000
612.00	3.88689500	0.20469400
614.00	3.88319000	0.20322700
616.00	3.87977200	0.20177300
618.00	3.87662000	0.20030600
620.00	3.87350000	0.19880000
622.00	3.87046900	0.19715800
624.00	3.86700200	0.19550900
626.00	3.86215400	0.19393700
628.00	3.85619100	0.19247400
630.00	3.85060000	0.19110000
632.00	3.84737700	0.18987800
634.00	3.84499800	0.18869500
636.00	3.84298800	0.18743800
638.00	3.84101600	0.18610500
640.00	3.83890000	0.18480000
642.00	3.83596400	0.18373800
644.00	3.83285200	0.18262100
646.00	3.83002800	0.18115200
648.00	3.82747600	0.17936000
650.00	3.82470000	0.17760000
652.00	3.82087300	0.17633800
654.00	3.81696200	0.17517900
656.00	3.81362200	0.17390800
658.00	3.81099100	0.17249600
660.00	3.80870000	0.17110000
662.00	3.80662700	0.16990200
664.00	3.80467000	0.16871300
666.00	3.80265800	0.16737700
668.00	3.80054300	0.16591000
670.00	3.79840000	0.16450000
672.00	3.79628000	0.16344100
674.00	3.79411200	0.16242600
676.00	3.79173600	0.16127800
678.00	3.78924800	0.15994300
680.00	3.78700000	0.15850000
682.00	3.78567000	0.15692700
684.00	3.78450900	0.15531000
686.00	3.78298000	0.15370500
688.00	3.78103200	0.15215800
690.00	3.77910000	0.15070000
692.00	3.77772900	0.14966700
694.00	3.77635400	0.14846200
696.00	3.77456700	0.14646200
698.00	3.77235400	0.14368900
700.00	3.77010000	0.14080000
702.00	3.76834800	0.13844900
704.00	3.76651600	0.13630200
706.00	3.76426500	0.13436700
708.00	3.76148600	0.13259800
710.00	3.75830000	0.13090000
712.00	3.75428900	0.12909000
714.00	3.75037000	0.12733700
716.00	3.74748600	0.12574400
718.00	3.74567900	0.12432400
720.00	3.74410000	0.12300000
722.00	3.74189700	0.12175700
724.00	3.73962700	0.12052600
726.00	3.73749000	0.11917800
728.00	3.73550500	0.11773900
730.00	3.73350000	0.11640000
732.00	3.73136000	0.11547600
734.00	3.72909200	0.11463200
736.00	3.72656500	0.11365000
738.00	3.72384600	0.11249300
740.00	3.72120000	0.11130000
742.00	3.71896800	0.11007300
744.00	3.71694400	0.10897000
746.00	3.71506100	0.10826800
748.00	3.71332200	0.10790800
750.00	3.71180000	0.10750000
752.00	3.71088200	0.10638900
754.00	3.70986100	0.10527400
756.00	3.70800800	0.10476500
758.00	3.70533600	0.10479000
760.00	3.70260000	0.10460000
762.00	3.70070500	0.10298000
764.00	3.69891800	0.10124800
766.00	3.69679300	0.10043100
768.00	3.69435400	0.10052600
770.00	3.69210000	0.10050000
772.00	3.69075400	0.09901600
774.00	3.68959300	0.09730800
776.00	3.68807700	0.09605800
778.00	3.68622200	0.09541500
780.00	3.68460000	0.09500000
782.00	3.68409400	0.09471400
784.00	3.68373900	0.09440500
786.00	3.68279200	0.09385900
788.00	3.68124000	0.09302200
790.00	3.67980000	0.09200000
792.00	3.67922700	0.09059900
794.00	3.67900900	0.08931400
796.00	3.67928100	0.08874800
798.00	3.67969100	0.08884800
800.00	3.67940000	0.08890000
802.00	3.67653600	0.08815600
804.00	3.67324000	0.08701200
806.00	3.67092900	0.08521800
808.00	3.66991500	0.08308900
810.00	3.66940000	0.08150000
812.00	3.66934800	0.08226800
814.00	3.66907200	0.08337200
816.00	3.66748400	0.08345500
818.00	3.66471200	0.08227400
820.00	3.66210000	0.08070000
822.00	3.66131400	0.07919100
824.00	3.66109700	0.07775000
826.00	3.66089300	0.07675600
828.00	3.66060500	0.07612400
830.00	3.66060000	0.07530000
832.00	3.66238800	0.07302300
834.00	3.66315200	0.07099000
836.00	3.66145200	0.06995400
838.00	3.65584800	0.07067300
840.00	3.64490000	0.07390000
