;  Optical constants for GaP
; 
;   taken from:
;
;   'Handbook of Optical Constants of Solids', Ed. by Edward D. Palik,
;   Academic Press, Inc., 1985.
;   
;    Lambda (nm)            n            k
;-----------------------------------------
103.32	0.82200000	0.93800000
112.71	0.87300000	1.04000000
118.08	0.87500000	1.10400000
124.60	0.99800000	1.22400000
130.51	1.07600000	1.18300000
136.99	1.04700000	1.15100000
145.86	0.94300000	1.22400000
154.01	0.87200000	1.40100000
165.31	0.94400000	1.65200000
177.11	1.05400000	1.87600000
183.67	1.20000000	1.96800000
189.28	1.30100000	1.89600000
193.72	1.20700000	1.83600000
206.63	0.90600000	2.28100000
206.63	1.30900000	2.69000000
208.72	1.32700000	2.76600000
210.14	1.32700000	2.80300000
212.29	1.34200000	2.88200000
213.76	1.34800000	2.93400000
213.76	0.98800000	2.65700000
215.99	1.36800000	3.02800000
217.51	1.38500000	3.09600000
219.82	1.41800000	3.21100000
221.39	1.44400000	3.29700000
223.79	1.49400000	3.44100000
225.42	1.54300000	3.55600000
227.90	1.66000000	3.75200000
229.59	1.77800000	3.88900000
230.45	1.85100000	3.95500000
231.31	1.93600000	4.01900000
232.17	2.02800000	4.07700000
233.04	2.13400000	4.12800000
233.93	2.24800000	4.16800000
234.81	2.36800000	4.19200000
235.70	2.49000000	4.20100000
236.60	2.60700000	4.19700000
237.51	2.71800000	4.18500000
238.42	2.82500000	4.17000000
239.34	2.93000000	4.15000000
240.27	3.03600000	4.12300000
241.21	3.14400000	4.08600000
242.15	3.24800000	4.03600000
243.10	3.34200000	3.97500000
244.06	3.42400000	3.90900000
245.02	3.49800000	3.83900000
245.99	3.56100000	3.76800000
246.97	3.61500000	3.69800000
247.96	3.66100000	3.63100000
248.96	3.70100000	3.56700000
249.96	3.73900000	3.50900000
250.97	3.77400000	3.45400000
251.99	3.80600000	3.40400000
253.02	3.84400000	3.35800000
254.06	3.88000000	3.31600000
255.10	3.92300000	3.26900000
256.16	3.97000000	3.21800000
257.22	4.01800000	3.16200000
258.29	4.06200000	3.09600000
259.37	4.10000000	3.02400000
260.46	4.13200000	2.94900000
261.56	4.15700000	2.87100000
262.67	4.17300000	2.79100000
263.79	4.18100000	2.71200000
264.92	4.18100000	2.63400000
266.05	4.17300000	2.56000000
267.20	4.15800000	2.49100000
268.36	4.13700000	2.42700000
269.52	4.11300000	2.37100000
273.08	4.03100000	2.24100000
275.51	3.97800000	2.18000000
279.23	3.90700000	2.11700000
281.77	3.86700000	2.09000000
285.67	3.81700000	2.06600000
288.33	3.79200000	2.05800000
292.41	3.76500000	2.05700000
295.19	3.75400000	2.06300000
299.47	3.74800000	2.08200000
302.39	3.75200000	2.10000000
306.88	3.76900000	2.13700000
309.95	3.79000000	2.17100000
314.67	3.84000000	2.24000000
317.90	3.89000000	2.30300000
319.54	3.92300000	2.34300000
321.19	3.96600000	2.38900000
322.87	4.02100000	2.44300000
324.56	4.09500000	2.50200000
326.26	4.19600000	2.56200000
327.99	4.32800000	2.61500000
329.73	4.49700000	2.64900000
331.50	4.70000000	2.64600000
333.28	4.92700000	2.58500000
335.08	5.14900000	2.45100000
336.90	5.32800000	2.25000000
338.74	5.43700000	2.01000000
340.60	5.47200000	1.76600000
342.49	5.45400000	1.55000000
344.39	5.40600000	1.36800000
346.31	5.33900000	1.21700000
348.26	5.26800000	1.08900000
350.23	5.19400000	0.98200000
352.22	5.12100000	0.89300000
354.23	5.05000000	0.81900000
356.26	4.98300000	0.75200000
358.32	4.92000000	0.69700000
360.41	4.86100000	0.64900000
362.51	4.80500000	0.60500000
364.65	4.75100000	0.56800000
366.81	4.70000000	0.53400000
368.99	4.65100000	0.50300000
371.20	4.60400000	0.47500000
373.43	4.56000000	0.44900000
375.70	4.51800000	0.42600000
377.99	4.47900000	0.40700000
380.31	4.44200000	0.38800000
382.65	4.40600000	0.36900000
385.03	4.37200000	0.35300000
387.44	4.33900000	0.33700000
389.87	4.30800000	0.32300000
392.34	4.27800000	0.31000000
394.84	4.24900000	0.29800000
397.37	4.22200000	0.28500000
399.94	4.19600000	0.27500000
402.53	4.17100000	0.26400000
405.16	4.14700000	0.25300000
407.83	4.12400000	0.24400000
410.53	4.10200000	0.23300000
413.27	4.08100000	0.22400000
416.04	4.06000000	0.21800000
418.85	4.04100000	0.20800000
421.70	4.02300000	0.20200000
424.59	4.00600000	0.19400000
427.52	3.99000000	0.18300000
430.49	3.97600000	0.17600000
433.50	3.96400000	0.16500000
436.55	3.95200000	0.15200000
439.64	3.93600000	0.13500000
442.79	3.91900000	0.11800000
445.97	3.90400000	0.10300000
449.20	3.89600000	0.08500000
452.48	3.86900000	0.05700000
455.81	3.83500000	0.03500000
459.19	3.80500000	0.02700000
469.62	3.73000000	0.01500000
473.03	3.73000000	0.00637000
476.85	3.69100000	0.00000000
488.11	3.63800000	0.00000000
495.92	3.60500000	0.00254000
499.92	3.59000000	0.00247000
499.92	3.45950000	0.00000000
508.11	3.56100000	0.00000000
516.58	3.53500000	0.00000000
529.83	3.49700000	0.00000000
539.04	3.47400000	0.00024800
543.77	3.46300000	0.00013000
544.97	3.45220000	0.00000000
548.58	3.45200000	0.00006200
550.04	3.44110000	0.00004200
553.48	3.44100000	0.00002700
558.47	3.43000000	0.00000310
559.98	3.42030000	0.00000000
563.54	3.42100000	0.00000140
568.72	3.41100000	0.00000028
570.02	3.40120000	0.00000000
579.35	3.39300000	0.00000000
579.89	3.38370000	0.00000000
590.10	3.36750000	0.00000000
590.38	3.37500000	0.00000000
600.10	3.35240000	0.00000000
607.75	3.35000000	0.00000000
609.84	3.33840000	0.00000000
619.90	3.32540000	0.00000000
619.90	3.33400000	0.00000000
629.98	3.31320000	0.00000000
639.07	3.31100000	0.00000000
640.06	3.30180000	0.00000000
650.13	3.29120000	0.00000000
652.53	3.29500000	0.00000000
659.82	3.28110000	0.00000000
669.80	3.27160000	0.00000000
673.80	3.27500000	0.00000000
680.09	3.26260000	0.00000000
688.78	3.26200000	0.00000000
689.93	3.25410000	0.00000000
700.06	3.24620000	0.00000000
712.53	3.24500000	0.00000000
729.29	3.23400000	0.00000000
755.98	3.21900000	0.00000000
774.88	3.20900000	0.00000000
799.87	3.18300000	0.00000000
805.06	3.19100000	0.00000000
826.53	3.17800000	0.00000000
899.71	3.14300000	0.00000000
999.84	3.11920000	0.00000000
1100.09	3.09810000	0.00000000
1200.19	3.08440000	0.00000000
1399.95	3.06460000	0.00000000
1599.95	3.05090000	0.00000000
1799.94	3.04390000	0.00000000
2000.00	3.03790000	0.00000000
2199.79	3.03310000	0.00000000
2399.92	3.02960000	0.00000000
