; From SOPRA S.A. http://www.sopra-sa.com/indices.htm
; Filename    Symbol               Range (nm)     Description
; GE100       Ge                  240      840    Germanium (100)
; lambda/nm       n         k
234.00	1.44390000	3.00940000
236.00	1.47450000	3.03650000
238.00	1.42140000	3.04660000
240.00	1.41350000	3.08460000
242.00	1.43110000	3.14360000
244.00	1.44130000	3.18060000
246.00	1.45650000	3.23160000
248.00	1.47250000	3.28610000
250.00	1.48800000	3.34340000
252.00	1.50690000	3.39440000
254.00	1.52920000	3.45550000
256.00	1.55170000	3.52080000
258.00	1.57580000	3.58360000
260.00	1.60830000	3.66030000
262.00	1.64710000	3.72890000
264.00	1.68360000	3.80620000
266.00	1.72390000	3.88450000
268.00	1.78260000	3.97650000
270.00	1.84160000	4.06850000
272.00	1.90170000	4.17210000
274.00	1.99870000	4.29240000
276.00	2.10730000	4.41220000
278.00	2.26290000	4.54520000
280.00	2.46830000	4.66460000
282.00	2.71950000	4.73100000
284.00	2.99600000	4.73060000
286.00	3.24760000	4.65620000
288.00	3.46050000	4.52970000
290.00	3.62440000	4.38530000
292.00	3.75640000	4.23390000
294.00	3.83060000	4.08710000
296.00	3.89100000	3.95350000
298.00	3.92560000	3.83560000
300.00	3.95650000	3.72490000
302.00	3.97280000	3.62700000
304.00	3.98640000	3.54080000
306.00	3.98940000	3.46570000
308.00	3.99290000	3.39840000
310.00	4.00150000	3.33290000
312.00	4.00960000	3.27300000
314.00	4.01590000	3.22180000
316.00	4.00850000	3.17960000
318.00	4.01630000	3.13520000
320.00	4.01930000	3.09780000
322.00	4.02430000	3.06190000
324.00	4.03100000	3.02470000
326.00	4.03120000	2.99260000
328.00	4.03510000	2.96030000
330.00	4.03790000	2.93230000
332.00	4.04640000	2.90430000
334.00	4.05660000	2.87580000
336.00	4.05570000	2.85270000
338.00	4.06360000	2.82760000
340.00	4.06650000	2.80220000
342.00	4.07650000	2.77900000
344.00	4.08190000	2.75780000
346.00	4.08190000	2.73960000
348.00	4.09070000	2.71950000
350.00	4.10060000	2.69700000
352.00	4.10650000	2.67870000
354.00	4.11170000	2.66290000
356.00	4.11780000	2.64530000
358.00	4.12750000	2.62690000
360.00	4.13710000	2.60950000
362.00	4.14670000	2.59150000
364.00	4.16080000	2.56960000
366.00	4.17170000	2.55260000
368.00	4.18430000	2.53250000
370.00	4.18960000	2.51420000
372.00	4.20130000	2.49440000
374.00	4.21080000	2.47150000
376.00	4.22270000	2.44620000
378.00	4.23000000	2.42300000
380.00	4.23180000	2.40050000
382.00	4.23830000	2.37540000
384.00	4.23810000	2.35510000
386.00	4.24180000	2.33200000
388.00	4.24460000	2.30860000
390.00	4.24670000	2.28510000
392.00	4.24540000	2.26320000
394.00	4.23850000	2.23860000
396.00	4.23350000	2.21840000
398.00	4.23080000	2.19540000
400.00	4.22280000	2.18060000
402.00	4.21530000	2.16530000
404.00	4.20330000	2.15150000
406.00	4.19310000	2.13960000
408.00	4.18080000	2.12950000
410.00	4.16950000	2.12230000
412.00	4.15960000	2.11620000
414.00	4.15540000	2.10810000
416.00	4.14570000	2.10580000
418.00	4.13840000	2.10150000
420.00	4.13040000	2.10180000
422.00	4.12530000	2.10200000
424.00	4.11970000	2.10350000
426.00	4.10120000	2.11080000
428.00	4.09740000	2.11280000
430.00	4.09890000	2.11560000
432.00	4.09660000	2.12190000
434.00	4.09510000	2.12720000
436.00	4.09710000	2.13170000
438.00	4.09960000	2.13650000
440.00	4.10190000	2.14340000
442.00	4.10360000	2.14980000
444.00	4.10630000	2.15740000
446.00	4.11140000	2.16280000
448.00	4.11440000	2.17060000
450.00	4.12110000	2.17670000
452.00	4.12763600	2.18417600
454.00	4.13457000	2.19165200
456.00	4.14194500	2.19916000
458.00	4.14980700	2.20673200
460.00	4.15820000	2.21440000
462.00	4.16725300	2.22215100
464.00	4.17683000	2.23011400
466.00	4.18674000	2.23863600
468.00	4.19707300	2.24753600
470.00	4.20820000	2.25610000
472.00	4.22093300	2.26317400
474.00	4.23425400	2.26982300
476.00	4.24711800	2.27659000
478.00	4.25970100	2.28364900
480.00	4.27340000	2.29080000
482.00	4.29049800	2.29781300
484.00	4.30857900	2.30514200
486.00	4.32598800	2.31347000
488.00	4.34253500	2.32258900
490.00	4.35950000	2.33140000
492.00	4.37794500	2.33823800
494.00	4.39729800	2.34462100
496.00	4.41741300	2.35145500
498.00	4.43833500	2.35884600
500.00	4.46030000	2.36610000
502.00	4.48336500	2.37265300
504.00	4.50785100	2.37878600
506.00	4.53437400	2.38442400
508.00	4.56279300	2.38966800
510.00	4.59220000	2.39480000
512.00	4.62094100	2.40065100
514.00	4.65091200	2.40604300
516.00	4.68337000	2.41042800
518.00	4.71859700	2.41328000
520.00	4.75590000	2.41410000
522.00	4.79559700	2.41192200
524.00	4.83636400	2.40720700
526.00	4.87682000	2.40065800
528.00	4.91674600	2.39158500
530.00	4.95710000	2.37790000
532.00	5.00063600	2.35542100
534.00	5.04262100	2.32874700
536.00	5.07928000	2.30037300
538.00	5.10969200	2.27141400
540.00	5.13580000	2.24160000
542.00	5.15775200	2.21070000
544.00	5.17684000	2.18053700
546.00	5.19437300	2.15307700
548.00	5.21089700	2.12869800
550.00	5.22620000	2.10620000
552.00	5.23988100	2.08454800
554.00	5.25331800	2.06467300
556.00	5.26764500	2.04731200
558.00	5.28335600	2.03234400
560.00	5.30030000	2.01880000
562.00	5.31807000	2.00553100
564.00	5.33808700	1.99328900
566.00	5.36134200	1.98306100
568.00	5.38852100	1.97415400
570.00	5.42000000	1.96420000
572.00	5.45774000	1.95215200
574.00	5.49921000	1.93544800
576.00	5.54364900	1.91080500
578.00	5.58962000	1.87734500
580.00	5.63500000	1.83660000
582.00	5.67772200	1.78818800
584.00	5.71662900	1.73395000
586.00	5.74986900	1.67479200
588.00	5.77640200	1.61207400
590.00	5.79600000	1.54760000
592.00	5.80672000	1.48366500
594.00	5.81073600	1.42031800
596.00	5.80868100	1.35822300
598.00	5.80165100	1.29823800
600.00	5.79120000	1.24140000
602.00	5.78001900	1.19014900
604.00	5.76650600	1.14223900
606.00	5.74978900	1.09630600
608.00	5.73026600	1.05220400
610.00	5.70960000	1.01100000
612.00	5.68978000	0.97390800
614.00	5.66978400	0.93977700
616.00	5.64961800	0.90809300
618.00	5.62914900	0.87857800
620.00	5.60810000	0.85120000
622.00	5.58588600	0.82617600
624.00	5.56311900	0.80256000
626.00	5.53969000	0.77917800
628.00	5.51616700	0.75605100
630.00	5.49380000	0.73440000
632.00	5.47505900	0.71589200
634.00	5.45750600	0.69890400
636.00	5.43971500	0.68261700
638.00	5.42135900	0.66669700
640.00	5.40320000	0.65130000
642.00	5.38576000	0.63597600
644.00	5.36860800	0.62140400
646.00	5.35148400	0.60831300
648.00	5.33439300	0.59661500
650.00	5.31760000	0.58540000
652.00	5.30113700	0.57343500
654.00	5.28535700	0.56179400
656.00	5.27111800	0.55115700
658.00	5.25806000	0.54152200
660.00	5.24460000	0.53220000
662.00	5.22774700	0.52218000
664.00	5.21085000	0.51254400
666.00	5.19637700	0.50419800
668.00	5.18452400	0.49706700
670.00	5.17320000	0.49010000
672.00	5.16022300	0.48184300
674.00	5.14729700	0.47363900
676.00	5.13528700	0.46629700
678.00	5.12426300	0.45991800
680.00	5.11350000	0.45390000
682.00	5.10223700	0.44781500
684.00	5.09108200	0.44179800
686.00	5.08035300	0.43569000
688.00	5.07007900	0.42956100
690.00	5.06000000	0.42370000
692.00	5.05000600	0.41871900
694.00	5.03997100	0.41387100
696.00	5.02957200	0.40850200
698.00	5.01888700	0.40264100
700.00	5.00840000	0.39700000
702.00	4.99862300	0.39246600
704.00	4.98934600	0.38830700
706.00	4.98070800	0.38416400
708.00	4.97260800	0.37996000
710.00	4.96470000	0.37590000
712.00	4.95607700	0.37226600
714.00	4.94797800	0.36865500
716.00	4.94176100	0.36464400
718.00	4.93718300	0.36028400
720.00	4.93240000	0.35610000
722.00	4.92495300	0.35271100
724.00	4.91683200	0.34969500
726.00	4.90894300	0.34709900
728.00	4.90153300	0.34469900
730.00	4.89420000	0.34200000
732.00	4.88688400	0.33792900
734.00	4.87947200	0.33366200
736.00	4.87148100	0.32994000
738.00	4.86320200	0.32694400
740.00	4.85570000	0.32430000
742.00	4.85120000	0.32197400
744.00	4.84706800	0.31973700
746.00	4.84125300	0.31732400
748.00	4.83363000	0.31466800
750.00	4.82600000	0.31190000
752.00	4.82035100	0.30901300
754.00	4.81505900	0.30612200
756.00	4.80930000	0.30331500
758.00	4.80295300	0.30065800
760.00	4.79660000	0.29820000
762.00	4.79068900	0.29607600
764.00	4.78498200	0.29417600
766.00	4.77942300	0.29258300
768.00	4.77403000	0.29115000
770.00	4.76890000	0.28950000
772.00	4.76459400	0.28698900
774.00	4.76008800	0.28417000
776.00	4.75406400	0.28120200
778.00	4.74680400	0.27827100
780.00	4.74020000	0.27560000
782.00	4.73743400	0.27380200
784.00	4.73510700	0.27220500
786.00	4.73072900	0.27028800
788.00	4.72417800	0.26804800
790.00	4.71770000	0.26600000
792.00	4.71374700	0.26486500
794.00	4.71040500	0.26390200
796.00	4.70678900	0.26276400
798.00	4.70273400	0.26124800
800.00	4.69880000	0.25930000
802.00	4.69566800	0.25588500
804.00	4.69250400	0.25281800
806.00	4.68860400	0.25196300
808.00	4.68396800	0.25327400
810.00	4.67930000	0.25480000
812.00	4.67566900	0.25475200
814.00	4.67189000	0.25382400
816.00	4.66680600	0.25166700
818.00	4.66064100	0.24843800
820.00	4.65500000	0.24480000
822.00	4.65206000	0.24101000
824.00	4.65003300	0.23780300
826.00	4.64851700	0.23627900
828.00	4.64686500	0.23650200
830.00	4.64420000	0.23750000
832.00	4.63767000	0.23886800
834.00	4.63098900	0.24004400
836.00	4.62578300	0.24051600
838.00	4.62367900	0.23977200
840.00	4.62630000	0.23730000
