; Refractive index spectrum for Ge by Aspnes
;
; D.E. Aspnes and A. A. Studna. Dielectric functions and optical parameters of Si, Ge, GaP, GaAs, GaSb, InP, InAs, and InSb from 1.5 to 6.0 eV, <a href="http://dx.doi.org/10.1103/PhysRevB.27.985"><i>Phys. Rev. B</i> <b>27</b>, 985-1009 (1983)</a>
;
; Crysal orientation: <111>; Doping: 2.5Ã—10<sup>14</sup> cm<sup>-3</sup>, n; Room temperature
;
; lambda/nm    n     k
206.60 	1.02300000 	2.77400000 
210.10 	1.10800000 	2.83100000 
213.80 	1.20900000 	2.87300000 
217.50 	1.31000000 	2.86600000 
221.40 	1.36000000 	2.84600000 
225.40 	1.38000000 	2.84200000 
229.60 	1.38300000 	2.85400000 
233.90 	1.37100000 	2.89700000 
238.40 	1.36400000 	2.97300000 
243.10 	1.37000000 	3.07300000 
248.00 	1.39400000 	3.19700000 
253.00 	1.43500000 	3.34200000 
258.30 	1.49800000 	3.50900000 
263.80 	1.58600000 	3.70900000 
269.50 	1.72000000 	3.96000000 
275.50 	1.95300000 	4.29700000 
281.80 	2.51600000 	4.66900000 
288.30 	3.33800000 	4.50700000 
295.20 	3.74500000 	4.00900000 
302.40 	3.86900000 	3.61400000 
310.00 	3.90500000 	3.33600000 
317.90 	3.92000000 	3.13700000 
326.30 	3.93600000 	2.98600000 
335.10 	3.95800000 	2.86300000 
344.40 	3.98500000 	2.75900000 
354.20 	4.02000000 	2.66700000 
364.70 	4.07000000 	2.57900000 
375.70 	4.12800000 	2.46900000 
387.50 	4.15700000 	2.34000000 
399.90 	4.14100000 	2.21500000 
413.30 	4.08200000 	2.14500000 
427.50 	4.03700000 	2.14000000 
442.80 	4.03500000 	2.18100000 
459.20 	4.08200000 	2.24000000 
476.90 	4.18000000 	2.30900000 
495.90 	4.34000000 	2.38400000 
516.60 	4.61000000 	2.45500000 
539.10 	5.06200000 	2.31800000 
563.60 	5.28300000 	2.04900000 
590.40 	5.74800000 	1.63400000 
619.90 	5.58800000 	0.93300000 
652.50 	5.29400000 	0.63800000 
688.80 	5.06700000 	0.50000000 
729.30 	4.89700000 	0.40100000 
774.90 	4.76300000 	0.34500000 
826.60 	4.65300000 	0.29800000 
