;  Optical constants for Ge
; 
;   taken from:
;
;   'Handbook of Optical Constants of Solids', Ed. by Edward D. Palik,
;   Academic Press, Inc., 1985.
;   
;    Lambda (nm)            n            k
;-----------------------------------------
123.98	0.93000000	0.86000000
137.76	0.92000000	1.14000000
145.86	0.92000000	1.20000000
154.97	0.92000000	1.40000000
177.11	1.00000000	1.80000000
190.74	1.10000000	2.05000000
206.63	1.30000000	2.34000000
206.63	1.02200000	2.77400000
208.72	1.07300000	2.80100000
210.14	1.10800000	2.83100000
212.29	1.16700000	2.86200000
213.76	1.20900000	2.87300000
215.62	1.48000000	2.40000000
215.99	1.27300000	2.87400000
217.51	1.29300000	2.16300000
219.82	1.34500000	2.85200000
221.39	1.36000000	2.84600000
223.79	1.37200000	2.84200000
225.42	1.38000000	2.84200000
225.42	1.55000000	2.40000000
227.90	1.38700000	2.84900000
229.59	1.38300000	2.85400000
232.17	1.37700000	2.87700000
233.93	1.37100000	2.89700000
236.15	1.57000000	2.70000000
236.60	1.36600000	2.93800000
238.42	1.36400000	2.97300000
241.21	1.36600000	3.03100000
243.10	1.37000000	3.07300000
245.99	1.38200000	3.14600000
247.96	1.39400000	3.19700000
247.96	1.60000000	2.86000000
250.97	1.41700000	3.28200000
253.02	1.43500000	3.34200000
256.16	1.47000000	3.43900000
258.29	1.49800000	3.50900000
261.56	1.54600000	3.62400000
263.79	1.58600000	3.70900000
267.20	1.65900000	3.85200000
269.52	1.72000000	3.96000000
273.08	1.83900000	4.14700000
275.51	1.95300000	4.29700000
279.23	2.22600000	4.54300000
281.77	2.51600000	4.66900000
285.67	3.03800000	4.65300000
288.33	3.33800000	4.50700000
292.41	3.63300000	4.20700000
295.19	3.74500000	4.00900000
299.47	3.83700000	3.75600000
302.39	3.86900000	3.61400000
306.88	3.89600000	3.43600000
309.95	3.90500000	3.33600000
314.67	3.91600000	3.20900000
317.90	3.92000000	3.13700000
322.87	3.93000000	3.04300000
326.26	3.93600000	2.98600000
331.50	3.94900000	2.90900000
335.08	3.95800000	2.86300000
340.60	3.97400000	2.79900000
344.39	3.98500000	2.75900000
350.23	4.00500000	2.70200000
354.23	4.02000000	2.66700000
360.41	4.04800000	2.61500000
364.65	4.07000000	2.57900000
371.20	4.10600000	2.51700000
375.70	4.12800000	2.46900000
382.65	4.15000000	2.39200000
387.44	4.15700000	2.34000000
394.84	4.15300000	2.26200000
399.94	4.14100000	2.21500000
407.83	4.10700000	2.16400000
413.27	4.08200000	2.14500000
421.70	4.05200000	2.13500000
427.52	4.03700000	2.14000000
436.55	4.03000000	2.16200000
442.79	4.03500000	2.18100000
452.48	4.05800000	2.21500000
459.19	4.08200000	2.24000000
469.62	4.13300000	2.28100000
476.85	4.18000000	2.30900000
488.11	4.26700000	2.35300000
495.92	4.34000000	2.38400000
508.11	4.48200000	2.42900000
516.58	4.61000000	2.45500000
529.83	4.88300000	2.43400000
539.04	5.06200000	2.31800000
553.48	5.19800000	2.12500000
563.54	5.28300000	2.04900000
579.35	5.55400000	1.92400000
590.38	5.74800000	1.63400000
604.78	5.90000000	0.00000000
607.75	5.70800000	1.15000000
619.90	5.58800000	0.93300000
619.90	5.64000000	0.00000000
635.79	5.50000000	0.00000000
652.53	5.38000000	0.00000000
652.53	5.29400000	0.63800000
670.16	5.21000000	0.00000000
673.80	5.15200000	0.53700000
688.78	5.06700000	0.50000000
688.78	5.08000000	0.00000000
708.46	4.99000000	0.00000000
712.53	4.96100000	0.43000000
729.29	4.89700000	0.40100000
729.29	4.95000000	0.00000000
755.98	4.81600000	0.36400000
774.88	4.76300000	0.34500000
774.88	4.75000000	0.30800000
805.06	4.68400000	0.31600000
826.53	4.65300000	0.29800000
826.53	4.64000000	0.23700000
885.57	4.56000000	0.19000000
953.69	4.49500000	0.16700000
999.84	4.61733000	0.00000000
1033.17	4.42000000	0.12300000
1127.09	4.38500000	0.10300000
1200.19	4.35673000	0.00000000
1239.80	4.32500000	0.08090000
1377.56	4.28500000	0.07450000
1399.95	4.23840000	0.00000000
1549.75	4.27500000	0.00567000
1599.74	4.17262000	0.00000000
1771.14	4.18000000	0.00028200
1799.94	4.13164000	0.00000000
1799.94	4.14300000	0.00000000
1849.90	4.13500000	0.00000000
1900.08	4.12900000	0.00000000
2000.00	4.11600000	0.00000000
2000.00	4.10415000	0.00000000
2099.93	4.10400000	0.00000000
2199.79	4.09200000	0.00000000
2199.79	4.08469000	0.00000000
2299.76	4.08500000	0.00000000
2399.92	4.07800000	0.00000000
2399.92	4.07038000	0.00000000
