; Segelstein, D., 1981: "The Complex Refractive Index of Water",
; M.S. Thesis, University of Missouri--Kansas City
;
; Wavelength(nm)	Real Index	Imag Index
;nm		n		k	; H2O (liquid)
200.000 	1.451724 	0.000000 
205.100 	1.442296 	0.000000 
209.900 	1.434685 	0.000000 
214.800 	1.427828 	0.000000 
219.800 	1.421603 	0.000000 
224.900 	1.415921 	0.000000 
230.100 	1.410702 	0.000000 
235.000 	1.406358 	0.000000 
239.900 	1.402321 	0.000000 
244.900 	1.398535 	0.000000 
250.000 	1.394993 	0.000000 
255.300 	1.391674 	0.000000 
260.000 	1.388881 	0.000000 
264.900 	1.386239 	0.000000 
269.800 	1.383726 	0.000000 
274.800 	1.381341 	0.000000 
279.900 	1.379072 	0.000000 
285.100 	1.376902 	0.000000 
289.700 	1.375086 	0.000000 
295.100 	1.373098 	0.000000 
299.900 	1.371437 	0.000000 
304.800 	1.369839 	0.000000 
309.700 	1.368287 	0.000000 
314.800 	1.366812 	0.000000 
319.900 	1.365376 	0.000000 
325.100 	1.363990 	0.000000 
330.400 	1.362616 	0.000000 
335.000 	1.361513 	0.000000 
339.600 	1.360441 	0.000000 
345.100 	1.359231 	0.000000 
349.900 	1.358224 	0.000000 
354.800 	1.357247 	0.000000 
359.700 	1.356295 	0.000000 
364.800 	1.355370 	0.000000 
369.800 	1.354470 	0.000000 
375.000 	1.353594 	0.000000 
380.200 	1.352740 	0.000000 
384.600 	1.352046 	0.000000 
389.900 	1.351231 	0.000000 
395.400 	1.350438 	0.000000 
399.900 	1.349793 	0.000000 
404.600 	1.349159 	0.000000 
410.200 	1.348417 	0.000000 
415.000 	1.347811 	0.000000 
419.800 	1.347219 	0.000000 
424.600 	1.346636 	0.000000 
429.500 	1.346066 	0.000000 
434.500 	1.345505 	0.000000 
439.500 	1.344956 	0.000000 
444.600 	1.344418 	0.000000 
449.800 	1.343889 	0.000000 
455.000 	1.343368 	0.000000 
460.300 	1.342858 	0.000000 
464.500 	1.342455 	0.000000 
469.900 	1.341961 	0.000000 
475.300 	1.341475 	0.000000 
479.700 	1.341093 	0.000000 
485.300 	1.340620 	0.000000 
489.800 	1.340248 	0.000000 
495.500 	1.339791 	0.000000 
500.000 	1.339430 	0.000000 
504.700 	1.339073 	0.000000 
510.500 	1.338635 	0.000000 
515.200 	1.338288 	0.000000 
520.000 	1.337944 	0.000000 
524.800 	1.337607 	0.000000 
529.700 	1.337273 	0.000000 
534.600 	1.336943 	0.000000 
539.500 	1.336615 	0.000000 
544.500 	1.336292 	0.000000 
549.500 	1.335972 	0.000000 
554.600 	1.335656 	0.000000 
559.800 	1.335344 	0.000000 
564.900 	1.335035 	0.000000 
570.200 	1.334729 	0.000000 
575.400 	1.334425 	0.000000 
579.400 	1.334200 	0.000000 
584.800 	1.333902 	0.000000 
590.200 	1.333609 	0.000000 
595.700 	1.333316 	0.000000 
599.800 	1.333100 	0.000000 
605.300 	1.332813 	0.000000 
609.500 	1.332598 	0.000000 
615.200 	1.332317 	0.000000 
619.400 	1.332106 	0.000000 
625.200 	1.331826 	0.000000 
629.500 	1.331619 	0.000000 
635.300 	1.331345 	0.000000 
639.700 	1.331144 	0.000000 
645.700 	1.330877 	0.000000 
650.100 	1.330683 	0.000000 
654.600 	1.330490 	0.000000 
660.700 	1.330238 	0.000000 
665.300 	1.330052 	0.000000 
669.900 	1.329869 	0.000000 
674.500 	1.329690 	0.000000 
680.800 	1.329452 	0.000000 
685.500 	1.329278 	0.000000 
690.200 	1.329106 	0.000000 
695.000 	1.328938 	0.000000 
699.800 	1.328769 	0.000000 
704.700 	1.328603 	0.000000 
709.600 	1.328440 	0.000000 
714.500 	1.328279 	0.000000 
719.400 	1.328120 	0.000000 
724.400 	1.327963 	0.000000 
729.500 	1.327808 	0.000000 
734.500 	1.327652 	0.000000 
739.600 	1.327502 	0.000000 
744.700 	1.327350 	0.000000 
749.900 	1.327201 	0.000000 
755.100 	1.327055 	0.000000 
760.300 	1.326909 	0.000000 
765.600 	1.326764 	0.000000 
769.100 	1.326667 	0.000000 
774.500 	1.326524 	0.000000 
779.800 	1.326382 	0.000000 
785.200 	1.326244 	0.000000 
790.700 	1.326104 	0.000000 
794.300 	1.326012 	0.000000 
799.800 	1.325874 	0.000000 
805.400 	1.325739 	0.000000 
809.100 	1.325648 	0.000000 
814.700 	1.325512 	0.000000 
820.400 	1.325379 	0.000000 
824.100 	1.325290 	0.000000 
829.900 	1.325157 	0.000000 
835.600 	1.325025 	0.000000 
839.500 	1.324937 	0.000000 
845.300 	1.324805 	0.000000 
849.200 	1.324718 	0.000000 
855.100 	1.324590 	0.000000 
859.000 	1.324502 	0.000000 
865.000 	1.324373 	0.000000 
871.000 	1.324244 	0.000000 
875.000 	1.324159 	0.000000 
879.000 	1.324074 	0.000000 
885.100 	1.323946 	0.000000 
889.200 	1.323859 	0.000000 
895.400 	1.323732 	0.000000 
899.500 	1.323648 	0.000000 
905.700 	1.323520 	0.000001 
909.900 	1.323434 	0.000001 
914.100 	1.323351 	0.000001 
920.400 	1.323222 	0.000001 
924.700 	1.323138 	0.000001 
929.000 	1.323054 	0.000001 
935.400 	1.322926 	0.000002 
939.700 	1.322842 	0.000002 
944.100 	1.322757 	0.000003 
950.600 	1.322630 	0.000003 
955.000 	1.322546 	0.000003 
959.400 	1.322462 	0.000003 
966.100 	1.322333 	0.000003 
970.500 	1.322249 	0.000004 
975.000 	1.322165 	0.000003 
979.500 	1.322080 	0.000003 
984.000 	1.321994 	0.000003 
990.800 	1.321866 	0.000003 
995.400 	1.321780 	0.000003 
1000.000 	1.321695 	0.000003 
1009.000 	1.321521 	0.000003 
1021.000 	1.321303 	0.000002 
1030.000 	1.321128 	0.000002 
1040.000 	1.320952 	0.000002 
1050.000 	1.320775 	0.000001 
1059.000 	1.320596 	0.000001 
1069.000 	1.320416 	0.000001 
1079.000 	1.320233 	0.000001 
1089.000 	1.320051 	0.000001 
1099.000 	1.319865 	0.000002 
1109.000 	1.319678 	0.000002 
1119.000 	1.319488 	0.000003 
1130.000 	1.319296 	0.000004 
1140.000 	1.319103 	0.000006 
1151.000 	1.318909 	0.000009 
1159.000 	1.318763 	0.000011 
1169.000 	1.318566 	0.000011 
1180.000 	1.318366 	0.000012 
1191.000 	1.318162 	0.000012 
1199.000 	1.318008 	0.000012 
1211.000 	1.317799 	0.000012 
1219.000 	1.317641 	0.000012 
1230.000 	1.317427 	0.000012 
1239.000 	1.317263 	0.000011 
1250.000 	1.317042 	0.000011 
1259.000 	1.316873 	0.000011 
1271.000 	1.316645 	0.000011 
1279.000 	1.316470 	0.000011 
1291.000 	1.316233 	0.000012 
1300.000 	1.316052 	0.000014 
1309.000 	1.315868 	0.000016 
1321.000 	1.315618 	0.000019 
1330.000 	1.315425 	0.000023 
1340.000 	1.315228 	0.000028 
1349.000 	1.315031 	0.000040 
1361.000 	1.314760 	0.000045 
1371.000 	1.314547 	0.000058 
1380.000 	1.314329 	0.000078 
1390.000 	1.314104 	0.000106 
1400.000 	1.313871 	0.000153 
1409.000 	1.313671 	0.000254 
1419.000 	1.313518 	0.000320 
1429.000 	1.313373 	0.000354 
1439.000 	1.313220 	0.000363 
1449.000 	1.313055 	0.000364 
1459.000 	1.312888 	0.000360 
1469.000 	1.312715 	0.000339 
1479.000 	1.312525 	0.000302 
1489.000 	1.312318 	0.000266 
1500.000 	1.312093 	0.000225 
1510.000 	1.311852 	0.000196 
1521.000 	1.311604 	0.000174 
1531.000 	1.311352 	0.000160 
1542.000 	1.311097 	0.000144 
1549.000 	1.310923 	0.000135 
1560.000 	1.310659 	0.000124 
1570.000 	1.310387 	0.000114 
1581.000 	1.310114 	0.000107 
1589.000 	1.309928 	0.000099 
1600.000 	1.309642 	0.000093 
1611.000 	1.309352 	0.000088 
1622.000 	1.309055 	0.000083 
1629.000 	1.308855 	0.000081 
1641.000 	1.308548 	0.000079 
1648.000 	1.308341 	0.000076 
1660.000 	1.308021 	0.000074 
1671.000 	1.307672 	0.000074 
1679.000 	1.307435 	0.000075 
1690.000 	1.307073 	0.000076 
1698.000 	1.306829 	0.000077 
1710.000 	1.306453 	0.000081 
1722.000 	1.306070 	0.000084 
1730.000 	1.305809 	0.000089 
1742.000 	1.305413 	0.000095 
1750.000 	1.305142 	0.000100 
1762.000 	1.304727 	0.000105 
1770.000 	1.304442 	0.000112 
1778.000 	1.304155 	0.000122 
1791.000 	1.303718 	0.000133 
1799.000 	1.303418 	0.000136 
1811.000 	1.302947 	0.000137 
1820.000 	1.302616 	0.000138 
1828.000 	1.302269 	0.000142 
1841.000 	1.301709 	0.000155 
1849.000 	1.301291 	0.000186 
1862.000 	1.300633 	0.000321 
1871.000 	1.300214 	0.000521 
1879.000 	1.299860 	0.000722 
1888.000 	1.299545 	0.000922 
1901.000 	1.298998 	0.001161 
1910.000 	1.298791 	0.001678 
1919.000 	1.298793 	0.001827 
1932.000 	1.298681 	0.001922 
1941.000 	1.298590 	0.001909 
1950.000 	1.298472 	0.001848 
1959.000 	1.298308 	0.001717 
1968.000 	1.298051 	0.001548 
1982.000 	1.297607 	0.001402 
1991.000 	1.297292 	0.001250 
2000.000 	1.296913 	0.001101 
