;  Optical constants for H2O
; 
;   taken from:
;
;   'Handbook of Optical Constants of Solids II', Ed. by Edward D. Palik,
;   Academic Press, Inc., 1991.
;   
;    Lambda (nm)            n            k
;-----------------------------------------
102.09	1.49300000	0.51850000
105.92	1.51600000	0.47070000
109.90	1.52900000	0.43030000
114.03	1.54300000	0.39880000
118.03	1.55300000	0.37050000
121.88	1.57000000	0.34900000
125.89	1.60600000	0.32200000
130.02	1.63400000	0.23920000
133.97	1.58600000	0.14890000
138.04	1.49600000	0.14220000
141.90	1.46200000	0.19270000
145.87	1.46900000	0.24090000
149.96	1.52100000	0.27720000
154.17	1.59700000	0.25810000
158.12	1.64100000	0.20220000
162.17	1.65300000	0.13510000
165.94	1.64700000	0.07241000
169.83	1.60600000	0.00399800
174.18	1.54900000	0.00118200
179.88	1.51300000	0.00005995
190.11	1.47500000	0.00000036
199.99	1.45200000	0.00000011
209.90	1.43500000	0.00000004
224.91	1.41600000	0.00000001
250.05	1.39500000	0.00000001
274.79	1.38100000	0.00000001
299.93	1.37100000	0.00000000
325.08	1.36400000	0.00000000
349.88	1.35800000	0.00000000
374.94	1.35400000	0.00000000
399.99	1.35000000	0.00000000
424.62	1.34700000	0.00000000
449.82	1.34400000	0.00000000
475.27	1.34200000	0.00000000
499.98	1.33900000	0.00000000
524.92	1.33800000	0.00000000
549.44	1.33600000	0.00000000
575.34	1.33400000	0.00000000
599.87	1.33300000	0.00000001
624.96	1.33200000	0.00000001
650.16	1.33100000	0.00000002
674.28	1.33000000	0.00000002
699.78	1.32900000	0.00000003
724.61	1.32800000	0.00000009
749.58	1.32700000	0.00000016
774.59	1.32700000	0.00000015
799.97	1.32600000	0.00000012
824.39	1.32500000	0.00000018
848.89	1.32500000	0.00000029
874.88	1.32400000	0.00000039
899.25	1.32400000	0.00000049
925.02	1.32300000	0.00000106
950.55	1.32300000	0.00000293
974.61	1.32200000	0.00000348
1000.00	1.32200000	0.00000300
1049.52	1.32100000	0.00000142
1099.02	1.32000000	0.00000171
1150.73	1.31900000	0.00000931
1199.38	1.31800000	0.00001199
1250.26	1.31700000	0.00001100
1300.17	1.31600000	0.00001400
1348.93	1.31500000	0.00004047
1399.53	1.31400000	0.00015300
1448.80	1.31300000	0.00036370
1499.64	1.31200000	0.00022480
1548.65	1.31100000	0.00013480
1599.43	1.31000000	0.00009347
1648.19	1.30800000	0.00007591
1698.31	1.30700000	0.00007743
1749.72	1.30500000	0.00010000
1798.82	1.30300000	0.00013590
1849.04	1.30100000	0.00018610
1901.07	1.29900000	0.00116100
1949.62	1.29800000	0.00184800
1999.94	1.29700000	0.00110100
2051.19	1.29400000	0.00067420
2099.01	1.29200000	0.00046430
2147.70	1.28900000	0.00037050
2197.72	1.28600000	0.00033790
2249.11	1.28200000	0.00037390
2301.42	1.27800000	0.00046860
2349.53	1.27300000	0.00063650
2398.58	1.26800000	0.00090950
2449.08	1.26100000	0.00134800
