; Refractive index spectrum for H2O by Warren
;
; S. G. Warren. Optical constants of ice from the ultraviolet to the microwave, <a href="http://dx.doi.org/10.1364/AO.23.001206"><i>Appl. Opt.</i> <b>23</b>, 1206-1225 (1984)</a>
;
; -7 Â°C
;
; lambda/nm    n     k
103.30 	1.40930000 	0.29100000 
107.80 	1.40220000 	0.25100000 
110.00 	1.39240000 	0.24400000 
112.70 	1.38420000 	0.23900000 
114.00 	1.38070000 	0.23900000 
118.10 	1.38190000 	0.24400000 
121.00 	1.39630000 	0.24700000 
124.00 	1.40920000 	0.22400000 
127.20 	1.40260000 	0.19500000 
129.50 	1.38010000 	0.17400000 
130.50 	1.36300000 	0.17200000 
131.90 	1.34140000 	0.18000000 
133.30 	1.32380000 	0.19400000 
134.80 	1.30600000 	0.21300000 
136.20 	1.29050000 	0.24300000 
137.00 	1.28890000 	0.27100000 
137.80 	1.28930000 	0.28900000 
138.70 	1.30190000 	0.33400000 
139.30 	1.32030000 	0.34400000 
140.90 	1.36300000 	0.38200000 
142.50 	1.41870000 	0.40100000 
143.50 	1.45830000 	0.40650000 
144.20 	1.49030000 	0.40500000 
145.00 	1.52130000 	0.38900000 
145.90 	1.55380000 	0.37700000 
146.80 	1.57780000 	0.34500000 
147.60 	1.59640000 	0.33200000 
148.00 	1.60650000 	0.31500000 
148.50 	1.61170000 	0.29800000 
149.40 	1.61920000 	0.27400000 
151.20 	1.62520000 	0.22800000 
153.10 	1.63400000 	0.19800000 
154.00 	1.63690000 	0.17200000 
155.00 	1.63830000 	0.15600000 
156.90 	1.63720000 	0.11000000 
158.00 	1.63230000 	0.08300000 
158.90 	1.62220000 	0.05800000 
161.00 	1.58270000 	0.02200000 
162.50 	1.55640000 	0.01000000 
164.80 	1.52450000 	0.00300000 
166.90 	1.50320000 	0.00100000 
169.20 	1.48500000 	0.00030000 
171.30 	1.47230000 	0.00011000 
173.70 	1.45990000 	0.00003000 
175.70 	1.45110000 	0.00001000 
177.90 	1.44270000 	0.00000300 
180.20 	1.43500000 	0.00000100 
180.90 	1.43280000 	0.00000070 
182.10 	1.42920000 	0.00000040 
183.30 	1.42600000 	0.00000020 
184.30 	1.42320000 	0.00000010 
185.00 	1.42140000 	0.00000006 
186.00 	1.41900000 	0.00000004 
187.00 	1.41660000 	0.00000003 
188.00 	1.41430000 	0.00000002 
189.00 	1.41220000 	0.00000002 
190.00 	1.41010000 	0.00000002 
191.00 	1.40810000 	0.00000002 
193.00 	1.40420000 	0.00000002 
195.00 	1.40070000 	0.00000002 
210.00 	1.38000000 	0.00000001 
250.00 	1.35090000 	0.00000001 
300.00 	1.33390000 	0.00000001 
350.00 	1.32490000 	0.00000000 
400.00 	1.31940000 	0.00000000 
410.00 	1.31850000 	0.00000000 
420.00 	1.31770000 	0.00000000 
430.00 	1.31700000 	0.00000000 
440.00 	1.31630000 	0.00000000 
450.00 	1.31570000 	0.00000000 
460.00 	1.31510000 	0.00000000 
470.00 	1.31450000 	0.00000000 
480.00 	1.31400000 	0.00000000 
490.00 	1.31350000 	0.00000000 
500.00 	1.31300000 	0.00000000 
510.00 	1.31260000 	0.00000000 
520.00 	1.31220000 	0.00000000 
530.00 	1.31180000 	0.00000000 
540.00 	1.31140000 	0.00000000 
550.00 	1.31100000 	0.00000000 
560.00 	1.31060000 	0.00000000 
570.00 	1.31030000 	0.00000000 
580.00 	1.31000000 	0.00000000 
590.00 	1.30970000 	0.00000000 
600.00 	1.30940000 	0.00000001 
610.00 	1.30910000 	0.00000001 
620.00 	1.30880000 	0.00000001 
630.00 	1.30850000 	0.00000001 
640.00 	1.30830000 	0.00000001 
650.00 	1.30800000 	0.00000001 
660.00 	1.30780000 	0.00000002 
670.00 	1.30760000 	0.00000002 
680.00 	1.30730000 	0.00000002 
690.00 	1.30710000 	0.00000002 
700.00 	1.30690000 	0.00000003 
710.00 	1.30670000 	0.00000003 
720.00 	1.30650000 	0.00000004 
730.00 	1.30620000 	0.00000004 
740.00 	1.30600000 	0.00000005 
750.00 	1.30580000 	0.00000006 
760.00 	1.30570000 	0.00000007 
770.00 	1.30550000 	0.00000009 
780.00 	1.30530000 	0.00000010 
790.00 	1.30510000 	0.00000012 
800.00 	1.30490000 	0.00000013 
810.00 	1.30470000 	0.00000014 
820.00 	1.30450000 	0.00000014 
830.00 	1.30440000 	0.00000015 
840.00 	1.30420000 	0.00000015 
850.00 	1.30400000 	0.00000018 
860.00 	1.30380000 	0.00000022 
870.00 	1.30370000 	0.00000027 
880.00 	1.30350000 	0.00000034 
890.00 	1.30330000 	0.00000039 
900.00 	1.30320000 	0.00000042 
910.00 	1.30300000 	0.00000044 
920.00 	1.30280000 	0.00000047 
930.00 	1.30270000 	0.00000051 
940.00 	1.30250000 	0.00000055 
950.00 	1.30230000 	0.00000060 
960.00 	1.30220000 	0.00000076 
970.00 	1.30200000 	0.00000093 
980.00 	1.30180000 	0.00000112 
990.00 	1.30170000 	0.00000133 
1000.00 	1.30150000 	0.00000162 
1010.00 	1.30130000 	0.00000200 
1020.00 	1.30120000 	0.00000225 
1030.00 	1.30100000 	0.00000233 
1040.00 	1.30080000 	0.00000233 
1050.00 	1.30060000 	0.00000217 
1060.00 	1.30050000 	0.00000196 
1070.00 	1.30030000 	0.00000181 
1080.00 	1.30010000 	0.00000174 
1090.00 	1.30000000 	0.00000173 
1100.00 	1.29980000 	0.00000170 
1110.00 	1.29960000 	0.00000176 
1120.00 	1.29950000 	0.00000182 
1130.00 	1.29930000 	0.00000204 
1140.00 	1.29910000 	0.00000225 
1150.00 	1.29890000 	0.00000229 
1160.00 	1.29870000 	0.00000304 
1170.00 	1.29850000 	0.00000384 
1180.00 	1.29840000 	0.00000477 
1190.00 	1.29820000 	0.00000576 
1200.00 	1.29800000 	0.00000671 
1210.00 	1.29780000 	0.00000866 
1220.00 	1.29760000 	0.00001020 
1230.00 	1.29740000 	0.00001130 
1240.00 	1.29720000 	0.00001220 
1250.00 	1.29700000 	0.00001290 
1260.00 	1.29690000 	0.00001320 
1270.00 	1.29670000 	0.00001350 
1280.00 	1.29650000 	0.00001330 
1290.00 	1.29630000 	0.00001320 
1300.00 	1.29610000 	0.00001320 
1310.00 	1.29580000 	0.00001310 
1320.00 	1.29560000 	0.00001320 
1330.00 	1.29540000 	0.00001320 
1340.00 	1.29520000 	0.00001340 
1350.00 	1.29500000 	0.00001390 
1360.00 	1.29480000 	0.00001420 
1370.00 	1.29450000 	0.00001480 
1380.00 	1.29430000 	0.00001580 
1390.00 	1.29410000 	0.00001740 
1400.00 	1.29380000 	0.00001980 
1410.00 	1.29360000 	0.00002500 
1420.00 	1.29330000 	0.00005400 
1430.00 	1.29300000 	0.00010400 
1440.00 	1.29270000 	0.00020300 
1449.00 	1.29250000 	0.00027080 
1460.00 	1.29230000 	0.00035110 
1471.00 	1.29210000 	0.00042990 
1481.00 	1.29190000 	0.00051810 
1493.00 	1.29170000 	0.00058550 
1504.00 	1.29150000 	0.00058990 
1515.00 	1.29130000 	0.00056350 
1527.00 	1.29110000 	0.00054800 
1538.00 	1.29080000 	0.00052660 
1563.00 	1.29030000 	0.00043940 
1587.00 	1.28960000 	0.00037010 
1613.00 	1.28890000 	0.00033720 
1650.00 	1.28780000 	0.00024100 
1680.00 	1.28690000 	0.00018900 
1700.00 	1.28620000 	0.00016600 
1730.00 	1.28520000 	0.00014500 
1760.00 	1.28410000 	0.00012800 
1800.00 	1.28260000 	0.00010300 
1830.00 	1.28140000 	0.00008600 
1840.00 	1.28090000 	0.00008220 
1850.00 	1.28050000 	0.00008030 
1855.00 	1.28020000 	0.00008500 
1860.00 	1.28000000 	0.00009900 
1870.00 	1.27950000 	0.00015000 
1890.00 	1.27850000 	0.00029500 
1905.00 	1.27770000 	0.00046870 
1923.00 	1.27690000 	0.00076150 
1942.00 	1.27610000 	0.00101000 
1961.00 	1.27540000 	0.00131300 
1980.00 	1.27470000 	0.00153900 
2000.00 	1.27400000 	0.00158800 
