;UO 
;UO Hg09Cd91.TeA:  Values of n and k for cubic mercury cadmium
;UO telluride (Hg0.09Cd0.91Te) from various references in HOCII
;UO (pg. 676).  Reference is 6.   
;UO 
;UO Copyright (c) 1995 the Optical Society of America.  Contains data
;UO from HANDBOOK OF OPTICAL CONSTANTS IN SOLIDS II edited by Edward D.
;UO Palik. Copyright (c) 1991 by Academic Press, Inc. Reproduced by
;UO permission of the publisher.
;UO ----------------------------------------------------------
;UO        nm        n        k
;UO ----------------------------------------------------------
;N  3
;L    Wavelength[nm]        n        k
225.40	1.41000000	2.10000000
227.10	1.43000000	2.13000000
228.70	1.46000000	2.16000000
230.40	1.50000000	2.19000000
232.20	1.57000000	2.22000000
233.90	1.62000000	2.24000000
235.70	1.68000000	2.25000000
237.50	1.75000000	2.25000000
239.30	1.85000000	2.25000000
241.20	1.95000000	2.23000000
243.10	2.03000000	2.21000000
245.00	2.10000000	2.20000000
247.00	2.19000000	2.14000000
249.00	2.28000000	2.08000000
251.00	2.33000000	2.04000000
253.00	2.37000000	1.99000000
255.10	2.40000000	1.94000000
257.20	2.42000000	1.89000000
259.40	2.43000000	1.85000000
261.60	2.44000000	1.82000000
263.80	2.45000000	1.79000000
266.10	2.45000000	1.76000000
268.40	2.45000000	1.74000000
270.70	2.45000000	1.72000000
273.10	2.44000000	1.70000000
275.50	2.44000000	1.69000000
278.00	2.44000000	1.67000000
280.50	2.43000000	1.66000000
283.10	2.43000000	1.66000000
285.70	2.43000000	1.65000000
288.30	2.43000000	1.65000000
291.00	2.43000000	1.66000000
293.80	2.44000000	1.66000000
296.60	2.44000000	1.66000000
299.50	2.44000000	1.67000000
302.40	2.45000000	1.68000000
305.40	2.47000000	1.69000000
308.40	2.48000000	1.70000000
311.50	2.49000000	1.72000000
314.70	2.51000000	1.73000000
317.90	2.56000000	1.74000000
321.20	2.60000000	1.76000000
324.60	2.63000000	1.77000000
328.00	2.68000000	1.78000000
331.50	2.75000000	1.77000000
335.10	2.81000000	1.74000000
338.70	2.84000000	1.72000000
342.50	2.88000000	1.69000000
346.30	2.91000000	1.65000000
350.20	2.94000000	1.62000000
354.20	2.96000000	1.60000000
358.30	2.98000000	1.58000000
362.50	3.00000000	1.56000000
366.80	3.01000000	1.55000000
371.20	3.04000000	1.55000000
375.70	3.07000000	1.55000000
380.30	3.11000000	1.54000000
385.00	3.16000000	1.53000000
389.90	3.24000000	1.50000000
394.80	3.31000000	1.46000000
399.90	3.36000000	1.42000000
405.20	3.42000000	1.33000000
410.50	3.47000000	1.22000000
416.00	3.50000000	1.12000000
421.70	3.50000000	1.04000000
427.50	3.49000000	0.98100000
433.50	3.48000000	0.92300000
439.60	3.47000000	0.85700000
446.00	3.45000000	0.79900000
452.50	3.44000000	0.77000000
459.20	3.43000000	0.73100000
466.10	3.41000000	0.68800000
473.20	3.39000000	0.64400000
480.50	3.38000000	0.61100000
488.10	3.36000000	0.58200000
495.90	3.35000000	0.54700000
504.00	3.33000000	0.51600000
512.30	3.31000000	0.48500000
520.90	3.29000000	0.45500000
529.80	3.28000000	0.42900000
539.00	3.26000000	0.40500000
548.60	3.24000000	0.37900000
558.50	3.23000000	0.35300000
568.70	3.21000000	0.33300000
579.30	3.20000000	0.31400000
590.40	3.19000000	0.29800000
601.80	3.18000000	0.28500000
613.80	3.16000000	0.27900000
626.20	3.15000000	0.27200000
639.10	3.14000000	0.26300000
652.50	3.12000000	0.26000000
666.60	3.12000000	0.25900000
681.20	3.11000000	0.25800000
696.50	3.09000000	0.26000000
712.50	3.08000000	0.26300000
729.30	3.07000000	0.26600000
