;UO 
;UO Hg14Cd86.TeA:  Values of n and k for cubic mercury cadmium
;UO telluride (Hg0.14Cd0.86Te) from various references in HOCII
;UO (pg. 676).  Reference is 6.   
;UO 
;UO Copyright (c) 1995 the Optical Society of America.  Contains data
;UO from HANDBOOK OF OPTICAL CONSTANTS IN SOLIDS II edited by Edward D.
;UO Palik. Copyright (c) 1991 by Academic Press, Inc. Reproduced by
;UO permission of the publisher.
;UO ----------------------------------------------------------
;UO        nm        n        k
;UO ----------------------------------------------------------
;N  3
;L    Wavelength[nm]        n        k
225.40	1.41000000	2.05000000
227.10	1.42000000	2.08000000
228.70	1.47000000	2.11000000
230.40	1.51000000	2.13000000
232.20	1.56000000	2.16000000
233.90	1.62000000	2.18000000
235.70	1.68000000	2.21000000
237.50	1.74000000	2.22000000
239.30	1.81000000	2.21000000
241.20	1.91000000	2.23000000
243.10	1.99000000	2.22000000
245.00	2.06000000	2.22000000
247.00	2.14000000	2.19000000
249.00	2.21000000	2.14000000
251.00	2.25000000	2.11000000
253.00	2.29000000	2.06000000
255.10	2.32000000	2.01000000
257.20	2.33000000	1.95000000
259.40	2.35000000	1.90000000
261.60	2.36000000	1.87000000
263.80	2.36000000	1.84000000
266.10	2.37000000	1.80000000
268.40	2.37000000	1.77000000
270.70	2.37000000	1.75000000
273.10	2.37000000	1.73000000
275.50	2.36000000	1.71000000
278.00	2.37000000	1.69000000
280.50	2.37000000	1.68000000
283.10	2.38000000	1.67000000
285.70	2.38000000	1.67000000
288.30	2.38000000	1.66000000
291.00	2.39000000	1.66000000
293.80	2.39000000	1.65000000
296.60	2.40000000	1.65000000
299.50	2.40000000	1.65000000
302.40	2.41000000	1.65000000
305.40	2.42000000	1.66000000
308.40	2.42000000	1.66000000
311.50	2.43000000	1.67000000
314.70	2.45000000	1.67000000
317.90	2.47000000	1.68000000
321.20	2.49000000	1.69000000
324.60	2.51000000	1.70000000
328.00	2.53000000	1.71000000
331.50	2.56000000	1.72000000
335.10	2.60000000	1.73000000
338.70	2.64000000	1.73000000
342.50	2.67000000	1.74000000
346.30	2.73000000	1.73000000
350.20	2.79000000	1.70000000
354.20	2.82000000	1.68000000
358.30	2.86000000	1.65000000
362.50	2.88000000	1.62000000
366.80	2.91000000	1.59000000
371.20	2.94000000	1.57000000
375.70	2.96000000	1.55000000
380.30	2.98000000	1.53000000
385.00	3.00000000	1.52000000
389.90	3.03000000	1.50000000
394.80	3.07000000	1.49000000
399.90	3.09000000	1.48000000
405.20	3.13000000	1.47000000
410.50	3.18000000	1.45000000
416.00	3.26000000	1.41000000
421.70	3.31000000	1.35000000
427.50	3.35000000	1.29000000
433.50	3.38000000	1.21000000
439.60	3.41000000	1.12000000
446.00	3.44000000	1.04000000
452.50	3.45000000	0.98300000
459.20	3.45000000	0.91800000
466.10	3.45000000	0.86400000
473.20	3.43000000	0.80700000
480.50	3.42000000	0.75900000
488.10	3.41000000	0.71400000
495.90	3.40000000	0.67200000
504.00	3.38000000	0.62900000
512.30	3.37000000	0.59000000
520.90	3.35000000	0.55800000
529.80	3.34000000	0.52900000
539.00	3.33000000	0.49800000
548.60	3.32000000	0.46100000
558.50	3.30000000	0.43100000
568.70	3.29000000	0.40400000
579.30	3.28000000	0.37600000
590.40	3.27000000	0.34300000
601.80	3.25000000	0.31300000
613.80	3.24000000	0.28700000
626.20	3.23000000	0.26800000
639.10	3.22000000	0.25100000
652.50	3.21000000	0.23900000
666.60	3.19000000	0.23800000
681.20	3.18000000	0.23900000
696.50	3.17000000	0.24100000
712.50	3.16000000	0.24400000
729.30	3.16000000	0.24600000
