; From SOPRA S.A. http://www.sopra-sa.com/indices.htm
; Filename    Symbol               Range (nm)     Description
; HGCDTE3     Hg0.71Cd0.29Te      200      900    Mercury Cadmium Telluride (29% Cd)
; lambda/nm       n         k
200.00	1.42000000	1.71500000
205.43	1.39040000	1.71253000
210.85	1.38449000	1.74254000
216.28	1.37837000	1.81765000
221.71	1.41347000	1.91943000
227.13	1.48102000	2.01879000
232.56	1.58918000	2.09709000
237.98	1.70315000	2.14953000
243.41	1.82532000	2.18488000
248.84	1.94871000	2.20017000
254.26	2.08103000	2.19847000
259.69	2.21539000	2.17140000
265.12	2.34176000	2.11254000
270.54	2.44053000	2.01983000
275.97	2.49683000	1.91966000
281.40	2.51859000	1.83246000
286.82	2.52100000	1.76408000
292.25	2.51925000	1.71771000
297.67	2.51648000	1.68160000
303.10	2.51345000	1.65464000
308.53	2.51123000	1.63549000
313.95	2.51000000	1.62078000
319.38	2.51039000	1.61202000
324.81	2.51158000	1.60664000
330.23	2.51350000	1.60575000
335.66	2.51747000	1.60860000
341.09	2.52470000	1.61474000
346.51	2.53302000	1.62202000
351.94	2.54433000	1.63229000
357.36	2.55804000	1.64453000
362.79	2.57339000	1.65844000
368.22	2.59289000	1.67429000
373.64	2.61570000	1.69188000
379.07	2.64136000	1.71023000
384.50	2.67095000	1.72884000
389.92	2.70695000	1.74946000
395.35	2.75034000	1.76942000
400.78	2.80238000	1.78589000
406.20	2.86520000	1.79412000
411.63	2.93182000	1.78390000
417.05	2.99654000	1.76297000
422.48	3.04698000	1.72866000
427.91	3.08510000	1.69040000
433.33	3.11366000	1.65377000
438.76	3.13428000	1.62194000
444.19	3.15031000	1.59522000
449.61	3.16321000	1.57269000
455.04	3.17572000	1.55353000
460.47	3.18712000	1.53936000
465.89	3.19823000	1.52963000
471.32	3.21092000	1.52247000
476.74	3.22608000	1.51694000
482.17	3.24308000	1.51613000
487.60	3.26424000	1.51730000
493.02	3.28933000	1.52098000
498.45	3.31924000	1.52666000
503.88	3.35641000	1.53335000
509.30	3.40460000	1.53671000
514.73	3.46631000	1.52820000
520.16	3.53257000	1.51092000
525.58	3.59716000	1.46959000
531.01	3.65085000	1.41450000
536.43	3.68944000	1.35293000
541.86	3.71049000	1.29046000
547.29	3.72983000	1.22989000
552.71	3.73744000	1.17208000
558.14	3.73878000	1.09812000
563.57	3.73692000	1.06116000
568.99	3.73188000	1.03174000
574.42	3.72503000	0.99208200
579.84	3.71654000	0.95739300
585.27	3.70768000	0.92508700
590.70	3.69737000	0.89606200
596.12	3.68859000	0.86238800
601.55	3.67847000	0.84380000
606.98	3.66921000	0.82063200
612.40	3.65918000	0.79829800
617.83	3.64931000	0.77861700
623.26	3.64162000	0.75891300
628.68	3.63226000	0.74226600
634.11	3.62288000	0.72524300
639.53	3.61438000	0.70967700
644.96	3.60630000	0.69567800
650.39	3.59837000	0.68207900
655.81	3.59010000	0.66947700
661.24	3.58195000	0.65826800
666.67	3.57499000	0.64740800
672.09	3.56676000	0.63770600
677.52	3.56003000	0.62822800
682.95	3.55359000	0.61885500
688.37	3.54695000	0.60973700
693.80	3.54020000	0.60096800
699.22	3.53477000	0.59259600
704.65	3.52947000	0.58416500
710.08	3.52427000	0.57635000
715.50	3.51927000	0.56889000
720.93	3.51493000	0.56042400
726.36	3.51068000	0.55450900
731.78	3.50599000	0.54876500
737.21	3.50049000	0.54210200
742.64	3.49876000	0.53711900
748.06	3.49598000	0.53108700
753.49	3.49135000	0.52347700
758.91	3.48677000	0.51794500
764.34	3.48250000	0.51285700
769.77	3.47872000	0.50818800
775.19	3.47550000	0.50460400
780.62	3.47208000	0.50129200
786.05	3.46720000	0.49806100
791.47	3.46403000	0.49269000
796.90	3.46226000	0.48555300
802.33	3.45658000	0.48745200
807.75	3.45066000	0.48973900
813.18	3.44783000	0.48340800
818.60	3.44522000	0.47780300
824.03	3.44300000	0.47353900
829.46	3.44111000	0.46871900
834.88	3.43949000	0.46343300
840.31	3.43786000	0.45814600
845.74	3.43624000	0.45286000
851.16	3.43461000	0.44757400
856.59	3.43299000	0.44228800
862.02	3.43137000	0.43700200
867.44	3.42974000	0.43171600
872.87	3.42812000	0.42643000
878.29	3.42649000	0.42114400
883.72	3.42487000	0.41585800
889.15	3.42324000	0.41057200
894.57	3.42162000	0.40528600
900.00	3.42000000	0.40000000
