; Refractive index spectrum for InAs by Aspnes
;
; D. E. Aspnes and A. A. Studna. Dielectric functions and optical parameters of Si, Ge, GaP, GaAs, GaSb, InP, InAs, and InSb from 1.5 to 6.0 eV, <a href="http://dx.doi.org/10.1103/PhysRevB.27.985"><i>Phys. Rev. B</i> <b>27</b>, 985-1009 (1983)</a>
;
; Crysal orientation: <110>; Doping: 2.7Ã—10<sup>16</sup> cm<sup>-3</sup>, n; Room temperature
;
; lambda/nm    n     k
206.60 	1.43400000 	2.11200000 
210.10 	1.38300000 	2.08400000 
213.80 	1.33300000 	2.10200000 
217.50 	1.29300000 	2.16300000 
221.40 	1.27600000 	2.24800000 
225.40 	1.28200000 	2.34400000 
229.60 	1.31200000 	2.44900000 
233.90 	1.36600000 	2.55500000 
238.40 	1.43600000 	2.64600000 
243.10 	1.48400000 	2.73200000 
248.00 	1.52400000 	2.87100000 
253.00 	1.60800000 	3.08100000 
258.30 	1.80300000 	3.34900000 
263.80 	2.20500000 	3.57500000 
269.50 	2.70500000 	3.58100000 
275.50 	3.19400000 	3.44500000 
281.80 	3.64400000 	3.04200000 
288.30 	3.76100000 	2.47800000 
295.20 	3.61500000 	2.09900000 
302.40 	3.44900000 	1.90300000 
310.00 	3.31300000 	1.79900000 
317.90 	3.20800000 	1.74300000 
326.30 	3.12900000 	1.71900000 
335.10 	3.06900000 	1.71500000 
344.40 	3.03000000 	1.72800000 
354.20 	3.00800000 	1.75400000 
364.70 	3.00400000 	1.79000000 
375.70 	3.01800000 	1.83600000 
387.50 	3.05100000 	1.89100000 
399.90 	3.10800000 	1.95700000 
413.30 	3.19700000 	2.03400000 
427.50 	3.33700000 	2.12900000 
442.80 	3.62600000 	2.20800000 
459.20 	3.91100000 	2.01600000 
476.90 	4.02100000 	1.88500000 
495.90 	4.36400000 	1.78600000 
516.60 	4.46600000 	1.28300000 
539.10 	4.33100000 	0.99100000 
563.60 	4.19900000 	0.82200000 
590.40 	4.08800000 	0.71200000 
619.90 	3.99500000 	0.63400000 
652.50 	3.91700000 	0.57200000 
688.80 	3.85100000 	0.53000000 
729.30 	3.79800000 	0.49300000 
774.90 	3.75500000 	0.46300000 
826.60 	3.71400000 	0.43200000 
