; Refractive index spectrum for InSb by Aspnes
;
; D. E. Aspnes and A. A. Studna. Dielectric functions and optical parameters of Si, Ge, GaP, GaAs, GaSb, InP, InAs, and InSb from 1.5 to 6.0 eV, <a href="http://dx.doi.org/10.1103/PhysRevB.27.985"><i>Phys. Rev. B</i> <b>27</b>, 985-1009 (1983)</a>
;
; Crysal orientation: <110>; Doping: 8Ã—10<sup>15</sup> cm<sup>-3</sup>, n; Room temperature
;
; lambda/nm    n     k
206.60 	0.86100000 	2.13900000 
210.10 	0.92200000 	2.18500000 
213.80 	0.96900000 	2.21000000 
217.50 	1.00000000 	2.23500000 
221.40 	1.02500000 	2.27500000 
225.40 	1.05700000 	2.33300000 
229.60 	1.11600000 	2.39400000 
233.90 	1.19400000 	2.43500000 
238.40 	1.27000000 	2.44400000 
243.10 	1.30900000 	2.43000000 
248.00 	1.30700000 	2.44100000 
253.00 	1.30100000 	2.49500000 
258.30 	1.31200000 	2.57600000 
263.80 	1.34100000 	2.66900000 
269.50 	1.38500000 	2.77600000 
275.50 	1.44300000 	2.89400000 
281.80 	1.51500000 	3.03400000 
288.30 	1.61800000 	3.20900000 
295.20 	1.79100000 	3.43300000 
302.40 	2.12700000 	3.66600000 
310.00 	2.63200000 	3.69400000 
317.90 	3.04400000 	3.47900000 
326.30 	3.28700000 	3.20400000 
335.10 	3.42700000 	2.93300000 
344.40 	3.48500000 	2.70500000 
354.20 	3.51100000 	2.51700000 
364.70 	3.52000000 	2.36900000 
375.70 	3.52500000 	2.21700000 
387.50 	3.48200000 	2.09300000 
399.90 	3.41900000 	2.01500000 
413.30 	3.36600000 	1.99400000 
427.50 	3.34200000 	2.00400000 
442.80 	3.34500000 	2.03600000 
459.20 	3.37700000 	2.08300000 
476.90 	3.44700000 	2.14500000 
495.90 	3.57000000 	2.22100000 
516.60 	3.82200000 	2.28700000 
539.10 	4.11100000 	2.06000000 
563.60 	4.13500000 	1.85000000 
590.40 	4.13600000 	1.77000000 
619.90 	4.19400000 	1.77300000 
652.50 	4.43300000 	1.87300000 
688.80 	4.90900000 	1.39600000 
729.30 	4.75400000 	0.94900000 
774.90 	4.56800000 	0.74900000 
826.60 	4.41800000 	0.64300000 
