;  Optical constants for InSb
; 
;   taken from:
;
;   'Handbook of Optical Constants of Solids', Ed. by Edward D. Palik,
;   Academic Press, Inc., 1985.
;   
;    Lambda (nm)            n            k
;-----------------------------------------
103.32	0.75000000	0.51000000
112.71	0.72000000	0.69000000
123.98	0.74000000	0.88000000
137.76	0.80000000	1.08000000
154.97	0.88000000	1.32000000
163.13	0.94000000	1.41000000
182.32	1.06000000	1.61000000
206.63	1.23000000	1.91000000
206.63	0.86100000	2.13900000
208.72	0.90000000	2.18000000
210.14	0.92200000	2.18500000
212.29	0.95100000	2.20400000
213.76	0.96900000	2.21000000
215.99	0.99200000	2.22700000
217.51	1.00000000	2.23500000
217.51	1.36000000	1.97000000
219.82	1.01600000	2.25700000
221.39	1.02500000	2.27500000
223.79	1.04200000	2.30700000
225.42	1.05700000	2.33300000
227.90	1.08800000	2.36900000
229.59	1.11600000	2.39400000
232.17	1.16100000	2.42400000
233.93	1.19400000	2.43500000
236.60	1.24200000	2.44600000
238.42	1.27000000	2.44400000
241.21	1.30100000	2.43500000
243.10	1.30900000	2.43000000
245.99	1.31100000	2.43100000
247.96	1.30700000	2.44100000
250.97	1.30100000	2.47000000
253.02	1.30100000	2.49500000
256.16	1.30600000	2.54200000
258.29	1.31200000	2.57600000
261.56	1.32800000	2.63000000
263.79	1.34100000	2.66900000
267.20	1.36600000	2.73200000
269.52	1.38500000	2.77600000
273.08	1.41900000	2.84500000
275.51	1.44300000	2.89400000
279.23	1.48400000	2.97500000
281.77	1.51500000	3.03400000
285.67	1.57100000	3.13400000
288.33	1.61800000	3.20900000
292.41	1.70800000	3.33700000
295.19	1.79100000	3.43300000
299.47	1.96600000	3.58200000
302.39	2.12700000	3.66600000
306.88	2.42500000	3.72000000
309.95	2.63200000	3.69400000
314.67	2.90200000	3.58100000
317.90	3.04400000	3.47900000
322.87	3.20400000	3.31400000
326.26	3.28700000	3.20400000
331.50	3.38300000	3.03900000
335.08	3.42700000	2.93300000
340.60	3.46800000	2.78900000
344.39	3.48500000	2.70500000
350.23	3.50400000	2.58900000
354.23	3.51100000	2.51700000
360.41	3.51500000	2.42400000
364.65	3.52000000	2.36900000
371.20	3.52800000	2.28000000
375.70	3.52500000	2.21700000
382.65	3.50200000	2.13700000
387.44	3.48200000	2.09300000
394.84	3.44500000	2.03800000
399.94	3.41900000	2.01500000
407.83	3.38400000	1.99700000
413.27	3.36600000	1.99400000
421.70	3.34800000	1.99700000
427.52	3.34200000	2.00400000
436.55	3.34000000	2.02100000
442.79	3.34500000	2.03600000
452.48	3.36000000	2.06200000
459.19	3.37700000	2.08300000
469.62	3.41300000	2.11900000
476.85	3.44700000	2.14500000
488.11	3.51200000	2.18800000
495.92	3.57000000	2.22100000
499.92	3.60500000	2.23800000
503.98	3.64600000	2.25400000
508.11	3.69400000	2.27100000
512.31	3.75200000	2.28300000
516.58	3.82200000	2.28700000
520.92	3.90000000	2.27400000
525.34	3.97600000	2.23900000
529.83	4.04000000	2.18300000
534.40	4.08400000	2.12100000
539.04	4.11100000	2.06000000
543.77	4.12600000	2.00500000
548.58	4.13300000	1.95700000
553.48	4.13600000	1.91500000
558.47	4.13600000	1.88000000
563.54	4.13500000	1.85000000
568.72	4.13400000	1.82600000
573.98	4.13200000	1.80600000
579.35	4.13200000	1.79000000
584.81	4.13300000	1.77900000
590.38	4.13600000	1.77000000
596.06	4.14200000	1.76500000
601.85	4.14900000	1.76300000
607.75	4.16100000	1.76300000
613.76	4.17500000	1.76700000
619.90	4.19400000	1.77300000
626.16	4.21800000	1.78400000
632.55	4.24900000	1.79900000
639.07	4.29000000	1.81800000
645.73	4.34700000	1.84400000
652.53	4.43300000	1.87300000
659.47	4.56600000	1.87900000
666.56	4.72300000	1.81600000
673.80	4.84100000	1.68500000
681.21	4.89800000	1.53400000
688.78	4.90900000	1.39600000
688.78	5.13000000	1.37000000
696.52	4.89400000	1.27500000
704.43	4.86700000	1.17100000
712.53	4.83000000	1.08500000
720.81	4.79300000	1.01000000
729.29	4.75400000	0.94900000
737.98	4.71200000	0.89700000
746.87	4.67500000	0.84800000
755.98	4.63700000	0.80800000
765.31	4.60200000	0.77600000
774.88	4.56800000	0.74900000
774.88	4.72000000	0.60000000
784.68	4.53400000	0.72300000
794.74	4.50100000	0.70100000
805.06	4.47300000	0.67500000
815.66	4.44200000	0.65900000
826.53	4.41800000	0.64300000
885.57	4.40000000	0.40000000
1033.17	4.24000000	0.32000000
1239.80	4.15000000	0.26000000
1549.75	4.08000000	0.20000000
2066.33	4.03000000	0.00000000
