;UO 
;UO K.ASC: Values of n and k for polycrystalline potassium from
;UO various references in HOCII (pg. 370). References are 6, 13,
;UO 15, 16.
;UO 
;UO From HANDBOOK OF OPTICAL CONSTANTS IN SOLIDS II edited by Edward D.
;UO Palik. Copyright (c) 1991 by Academic Press, Inc. Reproduced by
;UO permission of the publisher.
;UO ------------------------------------------------------------
;UO        nm        n        k
;UO ------------------------------------------------------------
;N  3
;L    Wavelength[nm]        n        k
120.00	0.94000000	0.03000000
125.00	0.94000000	0.04000000
130.00	0.94000000	0.04000000
135.00	0.94000000	0.05000000
140.00	0.94000000	0.05000000
145.00	0.94000000	0.06000000
150.00	0.94000000	0.06000000
155.00	0.94000000	0.06000000
160.00	0.94000000	0.06000000
165.00	0.93000000	0.06000000
170.00	0.93000000	0.06000000
175.00	0.92000000	0.06000000
180.00	0.92000000	0.06000000
185.00	0.91000000	0.06000000
190.00	0.90000000	0.06000000
195.00	0.88000000	0.05000000
200.00	0.87000000	0.05000000
205.00	0.85000000	0.05000000
215.00	0.83000000	0.05000000
220.00	0.81000000	0.05000000
225.00	0.79000000	0.05000000
230.00	0.78000000	0.04000000
235.00	0.76000000	0.04000000
240.00	0.74000000	0.04000000
245.00	0.72000000	0.04000000
250.00	0.70000000	0.04000000
255.00	0.68000000	0.04000000
260.00	0.66000000	0.04000000
265.00	0.64000000	0.04000000
270.00	0.61000000	0.05000000
275.00	0.58000000	0.05000000
280.00	0.55000000	0.05000000
285.00	0.52000000	0.05000000
290.00	0.48000000	0.06000000
295.00	0.45000000	0.06000000
300.00	0.41000000	0.07000000
305.00	0.38000000	0.07000000
310.00	0.34000000	0.08000000
312.30	0.28700000	0.09100000
334.20	0.08900000	0.28800000
364.70	0.05200000	0.54900000
405.20	0.04100000	0.79900000
420.30	0.04100000	0.89800000
439.70	0.04300000	1.02000000
469.60	0.04300000	1.14000000
506.10	0.04600000	1.28000000
546.20	0.04900000	1.43000000
599.00	0.05300000	1.62000000
663.00	0.05000000	1.84000000
751.40	0.04400000	2.19000000
861.00	0.04000000	2.56000000
1008.00	0.04000000	3.04000000
1181.00	0.04400000	3.58000000
1348.00	0.05600000	4.19000000
1531.00	0.06600000	4.75000000
1698.00	0.07900000	5.30000000
1851.00	0.09100000	5.79000000
1968.00	0.10600000	6.32000000
2138.00	0.11900000	6.72000000
2254.00	0.13900000	7.10000000
