;  Optical constants for polycrystalline K
; 
;   taken from:
;
;   'Handbook of Optical Constants of Solids II', Ed. by Edward D. Palik,
;   Academic Press, Inc., 1991.
;   
;    Lambda (nm)            n            k
;-----------------------------------------
120.02	0.94000000	0.03000000
124.99	0.94000000	0.04000000
130.00	0.94000000	0.04000000
135.00	0.94000000	0.05000000
140.00	0.94000000	0.05000000
144.99	0.94000000	0.06000000
150.10	0.94000000	0.06000000
154.99	0.94000000	0.06000000
160.00	0.94000000	0.06000000
165.00	0.93000000	0.06000000
170.00	0.93000000	0.06000000
174.99	0.92000000	0.06000000
179.99	0.92000000	0.06000000
184.99	0.91000000	0.06000000
189.98	0.90000000	0.06000000
195.00	0.88000000	0.05000000
200.00	0.87000000	0.05000000
204.99	0.85000000	0.05000000
214.98	0.83000000	0.05000000
219.94	0.81000000	0.05000000
225.01	0.79000000	0.05000000
229.98	0.78000000	0.04000000
234.99	0.76000000	0.04000000
239.99	0.74000000	0.04000000
244.97	0.72000000	0.04000000
250.01	0.70000000	0.04000000
255.00	0.68000000	0.04000000
259.97	0.66000000	0.04000000
264.97	0.64000000	0.04000000
269.99	0.61000000	0.05000000
274.96	0.58000000	0.05000000
279.99	0.55000000	0.05000000
285.01	0.52000000	0.05000000
290.01	0.48000000	0.06000000
294.98	0.45000000	0.06000000
299.98	0.41000000	0.07000000
304.99	0.38000000	0.07000000
309.95	0.34000000	0.08000000
312.29	0.28700000	0.09100000
334.18	0.08900000	0.28800000
364.65	0.05200000	0.54900000
405.16	0.04100000	0.79900000
420.27	0.04100000	0.89800000
439.64	0.04300000	1.02000000
469.62	0.04300000	1.14000000
506.04	0.04600000	1.28000000
546.17	0.04900000	1.43000000
598.94	0.05300000	1.62000000
663.00	0.05000000	1.84000000
751.39	0.04400000	2.19000000
860.97	0.04000000	2.56000000
1007.97	0.04000000	3.04000000
1180.76	0.04400000	3.58000000
1347.61	0.05600000	4.19000000
1530.62	0.06600000	4.75000000
1698.36	0.07900000	5.30000000
1850.45	0.09100000	5.79000000
1967.94	0.10600000	6.32000000
2137.59	0.11900000	6.72000000
2254.18	0.13900000	7.10000000
