;  Optical constants for cubic KBr
; 
;   taken from:
;
;   'Handbook of Optical Constants of Solids II', Ed. by Edward D. Palik,
;   Academic Press, Inc., 1991.
;   
;    Lambda (nm)            n            k
;-----------------------------------------
100.23	1.11300000	0.85400000
101.62	1.13200000	0.93800000
103.40	1.20700000	1.05800000
104.71	1.34100000	1.16600000
106.51	1.62100000	1.19200000
108.47	1.85100000	0.98600000
110.40	1.85900000	0.83800000
112.71	1.83800000	0.65500000
113.33	1.82400000	0.63400000
114.58	1.82400000	0.57100000
115.98	1.76000000	0.53200000
116.63	1.75200000	0.52000000
117.85	1.71900000	0.49400000
118.98	1.70400000	0.50100000
120.02	1.68700000	0.50400000
121.55	1.68400000	0.45800000
122.39	1.63500000	0.47300000
125.36	1.67000000	0.42400000
126.42	1.60600000	0.41300000
127.66	1.58800000	0.43300000
129.00	1.56900000	0.43200000
130.23	1.53900000	0.41400000
132.51	1.48800000	0.43400000
133.40	1.45200000	0.41300000
134.72	1.36900000	0.44900000
136.35	1.30300000	0.55300000
137.72	1.28200000	0.69800000
139.40	1.33500000	0.79700000
140.87	1.34100000	0.87900000
142.31	1.39000000	1.07300000
144.10	1.70200000	1.26700000
145.79	2.04200000	1.12500000
147.44	2.15000000	0.92900000
149.54	2.15300000	0.77400000
151.14	2.19500000	0.65000000
153.23	2.19200000	0.55100000
154.76	2.15800000	0.43700000
156.96	2.05600000	0.33000000
158.14	1.99000000	0.29700000
159.15	1.95000000	0.33300000
159.93	1.95300000	0.33400000
160.80	1.91000000	0.34800000
162.11	1.94600000	0.31200000
162.85	1.87500000	0.27800000
164.06	1.80800000	0.30300000
165.18	1.80200000	0.30700000
166.51	1.71300000	0.34700000
167.50	1.64900000	0.39700000
168.50	1.61300000	0.48000000
170.00	1.59300000	0.66200000
171.01	1.65000000	0.80900000
172.00	1.79900000	0.92500000
173.50	2.14200000	0.98300000
174.50	2.34900000	0.82600000
176.01	2.43300000	0.48600000
177.01	2.34800000	0.32200000
178.52	2.17400000	0.17900000
179.50	2.02900000	0.17200000
180.99	1.86300000	0.22900000
182.51	1.73200000	0.34500000
183.51	1.66900000	0.47300000
185.02	1.67900000	0.77400000
186.49	1.87600000	1.07000000
187.99	2.34800000	1.27900000
189.51	2.97700000	0.84600000
190.50	2.95700000	0.44400000
192.01	2.76100000	0.13100000
193.51	2.54900000	0.02310000
200.00	2.09953000	0.00000000
209.99	1.93440000	0.00000000
219.98	1.85023000	0.00000000
229.98	1.79622000	0.00000000
239.99	1.75773000	0.00000000
250.01	1.72863000	0.00000000
259.97	1.70575000	0.00000000
269.99	1.68725000	0.00000000
279.99	1.67197000	0.00000000
290.01	1.65915000	0.00000000
299.98	1.64825000	0.00000000
310.03	1.63886000	0.00000000
320.03	1.63071000	0.00000000
330.00	1.62357000	0.00000000
339.95	1.61727000	0.00000000
350.03	1.61167000	0.00000000
359.99	1.60668000	0.00000000
369.98	1.60220000	0.00000000
379.96	1.59816000	0.00000000
390.00	1.59450000	0.00000000
399.94	1.59117000	0.00000000
419.99	1.58537000	0.00000000
439.96	1.58048000	0.00000000
460.04	1.57632000	0.00000000
479.99	1.57274000	0.00000000
499.92	1.56964000	0.00000000
520.05	1.56694000	0.00000000
539.98	1.56456000	0.00000000
559.98	1.56247000	0.00000000
579.89	1.56060000	0.00000000
600.10	1.55894000	0.00000000
619.90	1.55744000	0.00000000
640.06	1.55610000	0.00000000
659.82	1.55488000	0.00000000
680.09	1.55378000	0.00000000
700.06	1.55278000	0.00000000
719.98	1.55186000	0.00000000
740.18	1.55102000	0.00000000
760.15	1.55025000	0.00000000
779.75	1.54954000	0.00000000
799.87	1.54888000	0.00000000
819.97	1.54828000	0.00000000
839.97	1.54772000	0.00000000
859.78	1.54720000	0.00000000
879.91	1.54671000	0.00000000
899.71	1.54626000	0.00000000
919.73	1.54584000	0.00000000
939.95	1.54544000	0.00000000
960.34	1.54507000	0.00000000
980.08	1.54472000	0.00000000
999.84	1.54440000	0.00000000
1200.19	1.54198000	0.00000000
1399.95	1.54052000	0.00000000
1599.95	1.53955000	0.00000000
1799.94	1.53901000	0.00000000
2000.00	1.53833000	0.00000000
2199.79	1.53792000	0.00000000
2399.92	1.53758000	0.00000000
