; Refractive index spectrum of UNEXPOSED KemLab KLIR image reversal resist
; Measured at NIST by M. Cangemi using VASE, January 2016
;
; lambda/nm    n          k
302.20 	1.794040 	0.030220 
303.80 	1.787780 	0.029740 
305.40 	1.781840 	0.029427 
307.00 	1.776180 	0.029275 
308.60 	1.770790 	0.029277 
310.20 	1.765660 	0.029426 
311.80 	1.760780 	0.029715 
313.40 	1.756150 	0.030136 
315.00 	1.751760 	0.030684 
316.50 	1.747610 	0.031351 
318.10 	1.743700 	0.032132 
319.70 	1.740030 	0.033019 
321.30 	1.736630 	0.033995 
322.90 	1.733480 	0.035038 
324.50 	1.730580 	0.036129 
326.10 	1.727930 	0.037248 
327.70 	1.725520 	0.038376 
329.30 	1.723350 	0.039496 
330.90 	1.721400 	0.040593 
332.50 	1.719660 	0.041649 
334.10 	1.718120 	0.042651 
335.60 	1.716760 	0.043585 
337.20 	1.715580 	0.044438 
338.80 	1.714550 	0.045200 
340.40 	1.713660 	0.045866 
342.00 	1.712880 	0.046433 
343.60 	1.712220 	0.046896 
345.20 	1.711650 	0.047251 
346.80 	1.711160 	0.047497 
348.40 	1.710740 	0.047629 
350.00 	1.710370 	0.047646 
351.60 	1.710040 	0.047545 
353.20 	1.709740 	0.047323 
354.70 	1.709440 	0.046980 
356.30 	1.709130 	0.046513 
357.90 	1.708790 	0.045922 
359.50 	1.708370 	0.045220 
361.10 	1.707850 	0.044436 
362.70 	1.707230 	0.043595 
364.30 	1.706500 	0.042725 
365.90 	1.705660 	0.041849 
367.50 	1.704700 	0.040991 
369.10 	1.703640 	0.040172 
370.70 	1.702470 	0.039413 
372.30 	1.701220 	0.038733 
373.80 	1.699890 	0.038152 
375.40 	1.698490 	0.037687 
377.00 	1.697050 	0.037354 
378.60 	1.695580 	0.037170 
380.20 	1.694120 	0.037149 
381.80 	1.692700 	0.037301 
383.40 	1.691370 	0.037605 
385.00 	1.690140 	0.038039 
386.60 	1.689040 	0.038578 
388.20 	1.688080 	0.039201 
389.80 	1.687260 	0.039886 
391.40 	1.686580 	0.040613 
393.00 	1.686050 	0.041363 
394.50 	1.685660 	0.042116 
396.10 	1.685420 	0.042857 
397.70 	1.685320 	0.043567 
399.30 	1.685340 	0.044231 
400.90 	1.685490 	0.044835 
402.50 	1.685750 	0.045363 
404.10 	1.686120 	0.045803 
405.70 	1.686570 	0.046142 
407.30 	1.687080 	0.046369 
408.90 	1.687640 	0.046481 
410.50 	1.688230 	0.046486 
412.10 	1.688820 	0.046390 
413.70 	1.689420 	0.046200 
415.20 	1.690010 	0.045924 
416.80 	1.690590 	0.045565 
418.40 	1.691160 	0.045132 
420.00 	1.691700 	0.044629 
421.60 	1.692210 	0.044062 
423.20 	1.692690 	0.043436 
424.80 	1.693150 	0.042755 
426.40 	1.693560 	0.042025 
428.00 	1.693950 	0.041251 
429.60 	1.694290 	0.040435 
431.20 	1.694590 	0.039583 
432.80 	1.694860 	0.038699 
434.40 	1.695080 	0.037785 
435.90 	1.695260 	0.036847 
437.50 	1.695400 	0.035887 
439.10 	1.695500 	0.034909 
440.70 	1.695550 	0.033915 
442.30 	1.695570 	0.032910 
443.90 	1.695540 	0.031895 
445.50 	1.695470 	0.030873 
447.10 	1.695370 	0.029848 
448.70 	1.695220 	0.028822 
450.30 	1.695030 	0.027797 
451.90 	1.694810 	0.026775 
453.50 	1.694540 	0.025759 
455.10 	1.694250 	0.024751 
456.60 	1.693910 	0.023753 
458.20 	1.693540 	0.022766 
459.80 	1.693140 	0.021794 
461.40 	1.692710 	0.020837 
463.00 	1.692250 	0.019897 
464.60 	1.691750 	0.018976 
466.20 	1.691240 	0.018076 
467.80 	1.690690 	0.017198 
469.40 	1.690120 	0.016344 
471.00 	1.689530 	0.015514 
472.60 	1.688920 	0.014711 
474.20 	1.688290 	0.013933 
475.80 	1.687650 	0.013183 
477.30 	1.687000 	0.012457 
478.90 	1.686340 	0.011757 
480.50 	1.685660 	0.011082 
482.10 	1.684980 	0.010432 
483.70 	1.684290 	0.009805 
485.30 	1.683600 	0.009202 
486.90 	1.682900 	0.008623 
488.50 	1.682190 	0.008067 
490.10 	1.681490 	0.007533 
491.70 	1.680780 	0.007022 
493.30 	1.680060 	0.006532 
494.90 	1.679350 	0.006065 
496.40 	1.678640 	0.005618 
498.00 	1.677930 	0.005193 
499.60 	1.677210 	0.004789 
501.20 	1.676500 	0.004405 
502.80 	1.675800 	0.004041 
504.40 	1.675090 	0.003697 
506.00 	1.674390 	0.003373 
507.60 	1.673690 	0.003068 
509.20 	1.673000 	0.002782 
510.80 	1.672310 	0.002514 
512.40 	1.671630 	0.002265 
514.00 	1.670960 	0.002035 
515.50 	1.670300 	0.001821 
517.10 	1.669640 	0.001625 
518.70 	1.668990 	0.001444 
520.30 	1.668360 	0.001277 
521.90 	1.667730 	0.001125 
523.50 	1.667110 	0.000987 
525.10 	1.666510 	0.000861 
526.70 	1.665910 	0.000747 
528.30 	1.665330 	0.000644 
529.90 	1.664750 	0.000551 
531.50 	1.664190 	0.000468 
533.00 	1.663640 	0.000394 
534.60 	1.663110 	0.000329 
536.20 	1.662580 	0.000272 
537.80 	1.662060 	0.000222 
539.40 	1.661560 	0.000179 
541.00 	1.661060 	0.000142 
542.60 	1.660580 	0.000111 
544.20 	1.660100 	0.000084 
545.80 	1.659640 	0.000063 
547.40 	1.659190 	0.000045 
549.00 	1.658750 	0.000032 
550.50 	1.658320 	0.000021 
552.10 	1.657900 	0.000013 
553.70 	1.657490 	0.000007 
555.30 	1.657090 	0.000004 
556.90 	1.656690 	0.000002 
558.50 	1.656310 	0.000000 
560.10 	1.655930 	0.000000 
561.70 	1.655560 	0.000000 
563.30 	1.655210 	0.000000 
564.90 	1.654850 	0.000000 
566.40 	1.654500 	0.000000 
568.00 	1.654170 	0.000000 
569.60 	1.653830 	0.000000 
571.20 	1.653500 	0.000000 
572.80 	1.653180 	0.000000 
574.40 	1.652860 	0.000000 
576.00 	1.652550 	0.000000 
577.60 	1.652240 	0.000000 
579.20 	1.651940 	0.000000 
580.80 	1.651640 	0.000000 
582.30 	1.651340 	0.000000 
583.90 	1.651050 	0.000000 
585.50 	1.650770 	0.000000 
587.10 	1.650490 	0.000000 
588.70 	1.650210 	0.000000 
590.30 	1.649940 	0.000000 
591.90 	1.649670 	0.000000 
593.50 	1.649400 	0.000000 
595.10 	1.649140 	0.000000 
596.60 	1.648880 	0.000000 
598.20 	1.648620 	0.000000 
599.80 	1.648370 	0.000000 
601.40 	1.648120 	0.000000 
603.00 	1.647870 	0.000000 
604.60 	1.647630 	0.000000 
606.20 	1.647390 	0.000000 
607.80 	1.647150 	0.000000 
609.40 	1.646920 	0.000000 
610.90 	1.646690 	0.000000 
612.50 	1.646460 	0.000000 
614.10 	1.646230 	0.000000 
615.70 	1.646010 	0.000000 
617.30 	1.645790 	0.000000 
618.90 	1.645570 	0.000000 
620.50 	1.645360 	0.000000 
622.10 	1.645140 	0.000000 
623.70 	1.644930 	0.000000 
625.20 	1.644720 	0.000000 
626.80 	1.644520 	0.000000 
628.40 	1.644310 	0.000000 
630.00 	1.644110 	0.000000 
631.60 	1.643910 	0.000000 
633.20 	1.643720 	0.000000 
634.80 	1.643520 	0.000000 
636.40 	1.643330 	0.000000 
637.90 	1.643140 	0.000000 
639.50 	1.642950 	0.000000 
641.10 	1.642760 	0.000000 
642.70 	1.642570 	0.000000 
644.30 	1.642390 	0.000000 
645.90 	1.642210 	0.000000 
647.50 	1.642030 	0.000000 
649.10 	1.641850 	0.000000 
650.60 	1.641670 	0.000000 
652.20 	1.641500 	0.000000 
653.80 	1.641330 	0.000000 
655.40 	1.641150 	0.000000 
657.00 	1.640980 	0.000000 
658.60 	1.640820 	0.000000 
660.20 	1.640650 	0.000000 
661.70 	1.640480 	0.000000 
663.30 	1.640320 	0.000000 
664.90 	1.640160 	0.000000 
666.50 	1.640000 	0.000000 
668.10 	1.639840 	0.000000 
669.70 	1.639680 	0.000000 
671.30 	1.639530 	0.000000 
672.80 	1.639370 	0.000000 
674.40 	1.639220 	0.000000 
676.00 	1.639070 	0.000000 
677.60 	1.638910 	0.000000 
679.20 	1.638770 	0.000000 
680.80 	1.638620 	0.000000 
682.40 	1.638470 	0.000000 
683.90 	1.638330 	0.000000 
685.50 	1.638180 	0.000000 
687.10 	1.638040 	0.000000 
688.70 	1.637900 	0.000000 
690.30 	1.637750 	0.000000 
691.90 	1.637620 	0.000000 
693.40 	1.637480 	0.000000 
695.00 	1.637340 	0.000000 
696.60 	1.637200 	0.000000 
698.20 	1.637070 	0.000000 
699.80 	1.636930 	0.000000 
701.40 	1.636800 	0.000000 
703.00 	1.636670 	0.000000 
704.50 	1.636540 	0.000000 
706.10 	1.636410 	0.000000 
707.70 	1.636280 	0.000000 
709.30 	1.636150 	0.000000 
710.90 	1.636020 	0.000000 
712.50 	1.635900 	0.000000 
714.00 	1.635770 	0.000000 
715.60 	1.635650 	0.000000 
717.20 	1.635530 	0.000000 
718.80 	1.635400 	0.000000 
720.40 	1.635280 	0.000000 
722.00 	1.635160 	0.000000 
723.50 	1.635040 	0.000000 
725.10 	1.634930 	0.000000 
726.70 	1.634810 	0.000000 
728.30 	1.634690 	0.000000 
729.90 	1.634570 	0.000000 
731.40 	1.634460 	0.000000 
733.00 	1.634350 	0.000000 
734.60 	1.634230 	0.000000 
736.20 	1.634120 	0.000000 
737.80 	1.634010 	0.000000 
739.40 	1.633900 	0.000000 
740.90 	1.633790 	0.000000 
742.50 	1.633680 	0.000000 
744.10 	1.633570 	0.000000 
745.70 	1.633460 	0.000000 
747.30 	1.633350 	0.000000 
748.80 	1.633250 	0.000000 
750.40 	1.633140 	0.000000 
752.00 	1.633040 	0.000000 
753.60 	1.632930 	0.000000 
755.20 	1.632830 	0.000000 
756.70 	1.632720 	0.000000 
758.30 	1.632620 	0.000000 
759.90 	1.632520 	0.000000 
761.50 	1.632420 	0.000000 
763.10 	1.632320 	0.000000 
764.60 	1.632220 	0.000000 
766.20 	1.632120 	0.000000 
767.80 	1.632020 	0.000000 
769.40 	1.631920 	0.000000 
771.00 	1.631830 	0.000000 
772.50 	1.631730 	0.000000 
774.10 	1.631630 	0.000000 
775.70 	1.631540 	0.000000 
777.30 	1.631450 	0.000000 
778.90 	1.631350 	0.000000 
780.40 	1.631260 	0.000000 
782.00 	1.631160 	0.000000 
783.60 	1.631070 	0.000000 
785.20 	1.630980 	0.000000 
786.80 	1.630890 	0.000000 
788.30 	1.630800 	0.000000 
789.90 	1.630710 	0.000000 
791.50 	1.630620 	0.000000 
793.10 	1.630530 	0.000000 
794.60 	1.630440 	0.000000 
796.20 	1.630350 	0.000000 
797.80 	1.630260 	0.000000 
799.40 	1.630180 	0.000000 
801.00 	1.630090 	0.000000 
802.50 	1.630000 	0.000000 
804.10 	1.629920 	0.000000 
805.70 	1.629830 	0.000000 
807.30 	1.629750 	0.000000 
808.80 	1.629660 	0.000000 
810.40 	1.629580 	0.000000 
812.00 	1.629500 	0.000000 
813.60 	1.629410 	0.000000 
815.10 	1.629330 	0.000000 
816.70 	1.629250 	0.000000 
818.30 	1.629170 	0.000000 
819.90 	1.629090 	0.000000 
821.40 	1.629010 	0.000000 
823.00 	1.628930 	0.000000 
824.60 	1.628850 	0.000000 
826.20 	1.628770 	0.000000 
827.70 	1.628690 	0.000000 
829.30 	1.628610 	0.000000 
830.90 	1.628530 	0.000000 
832.50 	1.628450 	0.000000 
834.00 	1.628380 	0.000000 
835.60 	1.628300 	0.000000 
837.20 	1.628220 	0.000000 
838.80 	1.628150 	0.000000 
840.30 	1.628070 	0.000000 
841.90 	1.628000 	0.000000 
843.50 	1.627920 	0.000000 
845.10 	1.627850 	0.000000 
846.60 	1.627770 	0.000000 
848.20 	1.627700 	0.000000 
849.80 	1.627630 	0.000000 
851.30 	1.627550 	0.000000 
852.90 	1.627480 	0.000000 
854.50 	1.627410 	0.000000 
856.10 	1.627340 	0.000000 
857.60 	1.627260 	0.000000 
859.20 	1.627190 	0.000000 
860.80 	1.627120 	0.000000 
862.40 	1.627050 	0.000000 
863.90 	1.626980 	0.000000 
865.50 	1.626910 	0.000000 
867.10 	1.626840 	0.000000 
868.60 	1.626770 	0.000000 
870.20 	1.626700 	0.000000 
871.80 	1.626630 	0.000000 
873.30 	1.626570 	0.000000 
874.90 	1.626500 	0.000000 
876.50 	1.626430 	0.000000 
878.10 	1.626360 	0.000000 
879.60 	1.626300 	0.000000 
881.20 	1.626230 	0.000000 
882.80 	1.626160 	0.000000 
884.30 	1.626100 	0.000000 
885.90 	1.626030 	0.000000 
887.50 	1.625960 	0.000000 
889.00 	1.625900 	0.000000 
890.60 	1.625830 	0.000000 
892.20 	1.625770 	0.000000 
893.80 	1.625700 	0.000000 
895.30 	1.625640 	0.000000 
896.90 	1.625570 	0.000000 
898.50 	1.625510 	0.000000 
900.00 	1.625450 	0.000000 
901.60 	1.625390 	0.000000 
903.20 	1.625320 	0.000000 
904.70 	1.625260 	0.000000 
906.30 	1.625200 	0.000000 
907.90 	1.625130 	0.000000 
909.40 	1.625070 	0.000000 
911.00 	1.625010 	0.000000 
912.60 	1.624950 	0.000000 
914.10 	1.624890 	0.000000 
915.70 	1.624830 	0.000000 
917.30 	1.624770 	0.000000 
918.80 	1.624710 	0.000000 
920.40 	1.624650 	0.000000 
922.00 	1.624590 	0.000000 
923.50 	1.624530 	0.000000 
925.10 	1.624470 	0.000000 
926.70 	1.624410 	0.000000 
928.20 	1.624350 	0.000000 
929.80 	1.624290 	0.000000 
931.40 	1.624230 	0.000000 
932.90 	1.624170 	0.000000 
934.50 	1.624110 	0.000000 
936.00 	1.624060 	0.000000 
937.60 	1.624000 	0.000000 
939.20 	1.623940 	0.000000 
940.70 	1.623880 	0.000000 
942.30 	1.623830 	0.000000 
943.90 	1.623770 	0.000000 
945.40 	1.623710 	0.000000 
947.00 	1.623660 	0.000000 
948.60 	1.623600 	0.000000 
950.10 	1.623540 	0.000000 
951.70 	1.623490 	0.000000 
953.20 	1.623430 	0.000000 
954.80 	1.623380 	0.000000 
956.40 	1.623320 	0.000000 
957.90 	1.623270 	0.000000 
959.50 	1.623210 	0.000000 
961.00 	1.623160 	0.000000 
962.60 	1.623100 	0.000000 
964.20 	1.623050 	0.000000 
965.70 	1.622990 	0.000000 
967.30 	1.622940 	0.000000 
968.80 	1.622890 	0.000000 
970.40 	1.622830 	0.000000 
972.00 	1.622780 	0.000000 
973.50 	1.622720 	0.000000 
975.10 	1.622670 	0.000000 
976.60 	1.622620 	0.000000 
978.20 	1.622570 	0.000000 
979.80 	1.622510 	0.000000 
981.30 	1.622460 	0.000000 
982.90 	1.622410 	0.000000 
984.40 	1.622360 	0.000000 
986.00 	1.622310 	0.000000 
987.60 	1.622250 	0.000000 
989.10 	1.622200 	0.000000 
990.70 	1.622150 	0.000000 
992.20 	1.622100 	0.000000 
993.80 	1.622050 	0.000000 
995.30 	1.622000 	0.000000 
996.90 	1.621950 	0.000000 
998.50 	1.621900 	0.000000 
1011.80 	1.621470 	0.000000 
1015.20 	1.621360 	0.000000 
1018.60 	1.621250 	0.000000 
1022.00 	1.621150 	0.000000 
1025.40 	1.621040 	0.000000 
1028.80 	1.620940 	0.000000 
1032.20 	1.620830 	0.000000 
1035.60 	1.620730 	0.000000 
1039.00 	1.620620 	0.000000 
1042.40 	1.620520 	0.000000 
1045.80 	1.620420 	0.000000 
1049.20 	1.620320 	0.000000 
1052.60 	1.620220 	0.000000 
1056.00 	1.620120 	0.000000 
1059.40 	1.620020 	0.000000 
1062.80 	1.619920 	0.000000 
1066.20 	1.619820 	0.000000 
1069.60 	1.619720 	0.000000 
1073.00 	1.619620 	0.000000 
1076.40 	1.619520 	0.000000 
1079.80 	1.619420 	0.000000 
1083.20 	1.619330 	0.000000 
1086.60 	1.619230 	0.000000 
1090.00 	1.619140 	0.000000 
1093.40 	1.619040 	0.000000 
1096.80 	1.618950 	0.000000 
1100.20 	1.618850 	0.000000 
1103.60 	1.618760 	0.000000 
1107.00 	1.618660 	0.000000 
1110.40 	1.618570 	0.000000 
1113.80 	1.618470 	0.000000 
1117.30 	1.618380 	0.000000 
1120.70 	1.618290 	0.000000 
1124.10 	1.618200 	0.000000 
1127.50 	1.618100 	0.000000 
1130.90 	1.618010 	0.000000 
1134.30 	1.617920 	0.000000 
1137.70 	1.617830 	0.000000 
1141.10 	1.617740 	0.000000 
1144.50 	1.617650 	0.000000 
1147.90 	1.617560 	0.000000 
1151.40 	1.617470 	0.000000 
1154.80 	1.617380 	0.000000 
1158.20 	1.617290 	0.000000 
1161.60 	1.617200 	0.000000 
1165.00 	1.617120 	0.000000 
1168.40 	1.617030 	0.000000 
1171.80 	1.616940 	0.000000 
1175.30 	1.616850 	0.000000 
1178.70 	1.616760 	0.000000 
1182.10 	1.616680 	0.000000 
1185.50 	1.616590 	0.000000 
1188.90 	1.616500 	0.000000 
1192.30 	1.616420 	0.000000 
1195.80 	1.616330 	0.000000 
1199.20 	1.616240 	0.000000 
1202.60 	1.616160 	0.000000 
1206.00 	1.616070 	0.000000 
1209.40 	1.615990 	0.000000 
1212.90 	1.615900 	0.000000 
1216.30 	1.615820 	0.000000 
1219.70 	1.615730 	0.000000 
1223.10 	1.615650 	0.000000 
1226.50 	1.615560 	0.000000 
1230.00 	1.615480 	0.000000 
1233.40 	1.615390 	0.000000 
1236.80 	1.615310 	0.000000 
1240.20 	1.615230 	0.000000 
1243.70 	1.615140 	0.000000 
1247.10 	1.615060 	0.000000 
1250.50 	1.614980 	0.000000 
1253.90 	1.614890 	0.000000 
1257.40 	1.614810 	0.000000 
1260.80 	1.614730 	0.000000 
1264.20 	1.614650 	0.000000 
1267.60 	1.614560 	0.000000 
1271.10 	1.614480 	0.000000 
1274.50 	1.614400 	0.000000 
1277.90 	1.614320 	0.000000 
1281.40 	1.614240 	0.000000 
1284.80 	1.614150 	0.000000 
1288.20 	1.614070 	0.000000 
1291.60 	1.613990 	0.000000 
1295.10 	1.613910 	0.000000 
1298.50 	1.613830 	0.000000 
1301.90 	1.613750 	0.000000 
1305.40 	1.613670 	0.000000 
1308.80 	1.613590 	0.000000 
1312.20 	1.613500 	0.000000 
1315.70 	1.613430 	0.000000 
1319.10 	1.613340 	0.000000 
1322.50 	1.613260 	0.000000 
1326.00 	1.613180 	0.000000 
1329.40 	1.613100 	0.000000 
1332.90 	1.613020 	0.000000 
1336.30 	1.612940 	0.000000 
1339.70 	1.612860 	0.000000 
1343.20 	1.612780 	0.000000 
1346.60 	1.612700 	0.000000 
1350.00 	1.612620 	0.000000 
1353.50 	1.612540 	0.000000 
1356.90 	1.612470 	0.000000 
1360.40 	1.612390 	0.000000 
1363.80 	1.612310 	0.000000 
1367.20 	1.612230 	0.000000 
1370.70 	1.612150 	0.000000 
1374.10 	1.612070 	0.000000 
1377.60 	1.611990 	0.000000 
1381.00 	1.611910 	0.000000 
1384.40 	1.611830 	0.000000 
1387.90 	1.611750 	0.000000 
1391.30 	1.611670 	0.000000 
1394.80 	1.611590 	0.000000 
1398.20 	1.611520 	0.000000 
1401.70 	1.611440 	0.000000 
1405.10 	1.611360 	0.000000 
1408.60 	1.611280 	0.000000 
1412.00 	1.611200 	0.000000 
1415.50 	1.611120 	0.000000 
1418.90 	1.611040 	0.000000 
1422.40 	1.610960 	0.000000 
1425.80 	1.610890 	0.000000 
1429.20 	1.610810 	0.000000 
1432.70 	1.610730 	0.000000 
1436.10 	1.610650 	0.000000 
1439.60 	1.610570 	0.000000 
1443.00 	1.610490 	0.000000 
1446.50 	1.610420 	0.000000 
1450.00 	1.610340 	0.000000 
1453.40 	1.610260 	0.000000 
1456.90 	1.610180 	0.000000 
1460.30 	1.610100 	0.000000 
1463.80 	1.610030 	0.000000 
1467.20 	1.609950 	0.000000 
1470.70 	1.609870 	0.000000 
1474.10 	1.609790 	0.000000 
1477.60 	1.609710 	0.000000 
1481.00 	1.609630 	0.000000 
1484.50 	1.609560 	0.000000 
1487.90 	1.609480 	0.000000 
1491.40 	1.609400 	0.000000 
1494.90 	1.609320 	0.000000 
1498.30 	1.609240 	0.000000 
1501.80 	1.609160 	0.000000 
1505.20 	1.609090 	0.000000 
1508.70 	1.609010 	0.000000 
1512.20 	1.608930 	0.000000 
1515.60 	1.608850 	0.000000 
1519.10 	1.608770 	0.000000 
1522.50 	1.608690 	0.000000 
1526.00 	1.608620 	0.000000 
1529.50 	1.608540 	0.000000 
1532.90 	1.608460 	0.000000 
1536.40 	1.608380 	0.000000 
1539.80 	1.608300 	0.000000 
1543.30 	1.608230 	0.000000 
1546.80 	1.608150 	0.000000 
1550.20 	1.608070 	0.000000 
1553.70 	1.607990 	0.000000 
1557.20 	1.607910 	0.000000 
1560.60 	1.607830 	0.000000 
1564.10 	1.607760 	0.000000 
1567.60 	1.607680 	0.000000 
1571.00 	1.607600 	0.000000 
1574.50 	1.607520 	0.000000 
1578.00 	1.607440 	0.000000 
1581.40 	1.607360 	0.000000 
1584.90 	1.607280 	0.000000 
1588.40 	1.607200 	0.000000 
1591.80 	1.607130 	0.000000 
1595.30 	1.607050 	0.000000 
1598.80 	1.606970 	0.000000 
1602.30 	1.606890 	0.000000 
1605.70 	1.606810 	0.000000 
1609.20 	1.606730 	0.000000 
1612.70 	1.606650 	0.000000 
1616.20 	1.606570 	0.000000 
1619.60 	1.606500 	0.000000 
1623.10 	1.606420 	0.000000 
1626.60 	1.606340 	0.000000 
1630.00 	1.606260 	0.000000 
1633.50 	1.606180 	0.000000 
1637.00 	1.606100 	0.000000 
1640.50 	1.606020 	0.000000 
1644.00 	1.605940 	0.000000 
1647.40 	1.605860 	0.000000 
1650.90 	1.605780 	0.000000 
1654.40 	1.605700 	0.000000 
1657.90 	1.605620 	0.000000 
1661.30 	1.605540 	0.000000 
1664.80 	1.605460 	0.000000 
1668.30 	1.605380 	0.000000 
1671.80 	1.605300 	0.000000 
1675.30 	1.605220 	0.000000 
1678.70 	1.605140 	0.000000 
1682.20 	1.605060 	0.000000 
1685.70 	1.604980 	0.000000 
1689.20 	1.604900 	0.000000 
