; Refractive index spectrum for Li by Inagaki
;
; T. Inagaki et al. Optical properties of solid Na and Li between 0.6 and 3.8 eV, <a href="http://dx.doi.org/10.1103/PhysRevB.13.2305"><i>Phs. Rev. B</i> <b>13</b>, 2305-313 (1976)</a>
;
; lambda/nm    n     k
326.00 	0.33800000 	1.40000000 
335.00 	0.32900000 	1.45000000 
344.00 	0.32000000 	1.50000000 
354.00 	0.31100000 	1.55000000 
365.00 	0.30100000 	1.61000000 
376.00 	0.29200000 	1.66000000 
387.00 	0.28100000 	1.72000000 
400.00 	0.27300000 	1.78000000 
413.00 	0.26300000 	1.84000000 
428.00 	0.25500000 	1.90000000 
443.00 	0.24400000 	1.99000000 
459.00 	0.23500000 	2.08000000 
477.00 	0.22500000 	2.19000000 
496.00 	0.21400000 	2.33000000 
517.00 	0.20900000 	2.43000000 
539.00 	0.20200000 	2.58000000 
564.00 	0.19900000 	2.69000000 
590.00 	0.19400000 	2.86000000 
620.00 	0.19100000 	3.04000000 
653.00 	0.19000000 	3.22000000 
689.00 	0.19100000 	3.42000000 
729.00 	0.19400000 	3.62000000 
775.00 	0.19700000 	3.88000000 
827.00 	0.20400000 	4.14000000 
886.00 	0.21600000 	4.43000000 
954.00 	0.22900000 	4.81000000 
1033.00 	0.25100000 	5.20000000 
1127.00 	0.27800000 	5.70000000 
1240.00 	0.31900000 	6.28000000 
1378.00 	0.37100000 	6.98000000 
1550.00 	0.43600000 	7.87000000 
1771.00 	0.53000000 	8.99000000 
2066.00 	0.66300000 	10.50000000 
