;  Optical constants for LiF
; 
;   taken from:
;
;   'Handbook of Optical Constants of Solids II', Ed. by Edward D. Palik,
;   Academic Press, Inc., 1991.
;   
;    Lambda (nm)            n            k
;-----------------------------------------
100.80	2.68000000	0.33000000
101.62	2.51000000	0.23000000
103.32	2.28000000	0.11000000
104.36	2.00300000	0.00000000
104.62	1.98500000	0.00000000
105.25	1.95100000	0.00000000
105.52	2.08000000	0.04000000
105.52	1.93700000	0.00000000
105.97	1.91400000	0.00000160
106.97	1.87500000	0.00000000
107.81	1.84400000	0.00000000
107.81	1.94000000	0.00000094
108.18	1.83300000	0.00000000
109.43	1.79800000	0.00000000
110.20	1.84000000	0.00000000
110.30	1.77700000	0.00000000
111.39	1.75100000	0.00000000
112.61	1.72900000	0.00000000
112.71	1.77000000	0.00000081
112.71	1.72800000	0.00000000
114.58	1.69900000	0.00000000
116.30	1.67700000	0.00000000
117.85	1.65900000	0.00000000
118.08	1.65600000	0.00000000
118.08	1.67000000	0.00000000
119.79	1.63900000	0.00000000
121.55	1.62400000	0.00000077
122.87	1.61400000	0.00000000
123.98	1.60600000	0.00000077
123.98	1.60000000	0.00000000
124.89	1.59900000	0.00000000
127.59	1.58300000	0.00000000
130.15	1.56900000	0.00000000
132.50	1.55800000	0.00000000
135.00	1.54800000	0.00000000
137.69	1.53800000	0.00000000
137.76	1.53000000	0.00000000
140.00	1.53000000	0.00000000
144.99	1.51500000	0.00000000
149.99	1.50300000	0.00000000
154.97	1.49300000	0.00000000
154.97	1.49000000	0.00000000
160.00	1.48400000	0.00000000
170.00	1.46900000	0.00000000
177.11	1.46000000	0.00000000
177.11	1.46100000	0.00000000
179.99	1.45800000	0.00000000
179.99	1.45330000	0.00000000
182.00	1.45160000	0.00000000
184.00	1.45000000	0.00000000
185.99	1.44840000	0.00000000
187.99	1.44690000	0.00000000
189.98	1.44550000	0.00000000
189.98	1.44900000	0.00000000
191.98	1.44410000	0.00000000
193.99	1.44280000	0.00000000
195.98	1.44150000	0.00000000
197.99	1.44030000	0.00000000
200.00	1.43910000	0.00000000
200.00	1.44100000	0.00000000
204.99	1.43630000	0.00000000
209.99	1.43370000	0.00000000
214.98	1.43130000	0.00000000
219.98	1.42910000	0.00000000
225.01	1.42710000	0.00000000
229.98	1.42520000	0.00000000
234.99	1.42350000	0.00000000
239.99	1.42190000	0.00000000
244.97	1.42030000	0.00000000
250.01	1.41890000	0.00000000
255.00	1.41760000	0.00000000
259.97	1.41640000	0.00000000
264.97	1.41520000	0.00000000
269.99	1.41410000	0.00000000
274.96	1.41310000	0.00000000
279.99	1.41210000	0.00000000
285.01	1.41120000	0.00000000
290.01	1.41030000	0.00000000
294.98	1.40950000	0.00000000
299.98	1.40870000	0.00000000
309.95	1.40730000	0.00000000
319.95	1.40600000	0.00000000
330.00	1.40480000	0.00000000
339.95	1.40370000	0.00000000
350.03	1.40280000	0.00000000
359.99	1.40190000	0.00000000
369.98	1.40100000	0.00000000
379.96	1.40030000	0.00000000
390.00	1.39960000	0.00000000
399.94	1.39890000	0.00000000
419.99	1.39780000	0.00000000
439.96	1.39680000	0.00000000
460.04	1.39590000	0.00000000
479.99	1.39510000	0.00000000
499.92	1.39440000	0.00000000
520.05	1.39380000	0.00000000
539.98	1.39330000	0.00000000
559.98	1.39280000	0.00000000
579.89	1.39230000	0.00000000
600.10	1.39190000	0.00000000
619.90	1.39150000	0.00000000
640.06	1.39120000	0.00000000
659.82	1.39080000	0.00000000
680.09	1.39050000	0.00000000
700.06	1.39020000	0.00000000
719.98	1.39000000	0.00000000
740.18	1.38970000	0.00000000
760.15	1.38940000	0.00000000
779.75	1.38920000	0.00000000
799.87	1.38900000	0.00000000
819.97	1.38880000	0.00000000
839.97	1.38860000	0.00000000
859.78	1.38840000	0.00000000
879.91	1.38820000	0.00000000
899.71	1.38800000	0.00000000
919.73	1.38780000	0.00000000
939.95	1.38760000	0.00000000
959.60	1.38750000	0.00000000
980.08	1.38730000	0.00000000
999.84	1.38710000	0.00000000
1049.79	1.38670000	0.00000000
1100.09	1.38630000	0.00000000
1140.57	1.38590000	0.00000000
1200.19	1.38550000	0.00000000
1249.92	1.38510000	0.00000000
1299.99	1.38470000	0.00000000
1349.96	1.38440000	0.00000000
1399.95	1.38400000	0.00000000
1449.89	1.38360000	0.00000000
1499.88	1.38320000	0.00000000
1549.94	1.38280000	0.00000000
1599.95	1.38230000	0.00000000
1649.99	1.38190000	0.00000000
1699.99	1.38150000	0.00000000
1749.89	1.38100000	0.00000000
1799.94	1.38060000	0.00000000
1849.90	1.38010000	0.00000000
1899.79	1.37960000	0.00000000
1949.98	1.37910000	0.00000000
2000.00	1.37870000	0.00000000
2099.93	1.37770000	0.00000000
2199.79	1.37660000	0.00000000
2299.76	1.37550000	0.00000000
2399.92	1.37440000	0.00000000
