;UO 
;UO LiNbO3.ASC: Values of n and k for trigonal lithium niobate from
;UO various references in HOCI (pg. 699).  References are 1, 3, 5,
;UO 6, 7, 8, 10, 11.
;UO 
;UO From HANDBOOK OF OPTICAL CONSTANTS IN SOLIDS edited by Edward D.
;UO Palik. Copyright (c) 1985 by Academic Press, Inc. Reproduced by
;UO permission of the publisher.
;UO -------------------------------------------------------------------
;UO        nm        n        k
;UO -------------------------------------------------------------------
;N  7
;L    Wavelength[nm]        n        k
124.00	1.67000000	1.22000000
127.20	1.88000000	1.28000000
130.50	2.04000000	1.17000000
134.00	2.19000000	1.09000000
137.80	2.32000000	0.75000000
141.70	2.12000000	0.45000000
145.90	1.82000000	0.36000000
150.30	1.58000000	0.46000000
155.00	1.43000000	0.59000000
165.30	1.38000000	0.98000000
177.10	1.54000000	1.30000000
190.70	1.82000000	1.48000000
206.60	2.16000000	1.60000000
215.60	2.36000000	1.67000000
225.40	2.68000000	1.75000000
236.20	3.22000000	1.60000000
248.00	3.62000000	1.27000000
261.00	3.52000000	0.43000000
275.50	3.19000000	0.11000000
291.70	2.91000000	0.00000000
310.00	2.76000000	0.00041900
404.63	2.43170000	2.32600000
420.00	2.40890000	2.30250000
435.84	2.39280000	2.29320000
450.00	2.37800000	2.27720000
467.82	2.36340000	2.26830000
479.99	2.35410000	2.26050000
500.00	2.34100000	2.24570000
508.58	2.33560000	2.24480000
546.07	2.31650000	2.22850000
550.00	2.31320000	2.22370000
576.96	2.30400000	2.21780000
578.97	2.30320000	2.21710000
587.56	2.30020000	2.21470000
600.00	2.29670000	2.20820000
643.85	2.28350000	2.20020000
667.82	2.27780000	2.19530000
700.00	2.27160000	2.18740000
706.52	2.26990000	2.18860000
800.00	2.25710000	2.17450000
809.26	2.25410000	2.17490000
871.68	2.24710000	2.16880000
900.00	2.24480000	2.16410000
935.64	2.24120000	2.16390000
959.98	2.23930000	2.16220000
1000.00	2.23700000	2.15670000
1014.00	2.23510000	2.15840000
1092.14	2.23040000	2.15450000
1153.92	2.22710000	2.15170000
1157.94	2.22690000	2.15150000
1200.00	2.22690000	2.14780000
1287.70	2.22110000	2.14640000
1400.00	2.21840000	2.14170000
1439.97	2.21510000	2.14130000
1600.00	2.21130000	2.13610000
1638.21	2.20830000	2.13560000
1800.00	2.20490000	2.13060000
1911.25	2.19940000	2.12800000
2000.00	2.19740000	2.12500000
2184.28	2.19120000	2.12110000
2200.00	2.19090000	2.11830000
2399.95	2.18400000	2.11510000
2400.00	2.18500000	2.11290000
2600.00	2.17780000	2.10710000
2615.04	2.17650000	2.10870000
2730.35	2.17240000	2.10530000
2800.00	2.17030000	2.10090000
2897.33	2.16570000	2.09990000
