;  Optical constants for NaCl
; 
;   taken from:
;
;   'Handbook of Optical Constants of Solids', Ed. by Edward D. Palik,
;   Academic Press, Inc., 1985.
;   
;    Lambda (nm)            n            k
;-----------------------------------------
100.39	1.19000000	0.85000000
100.80	1.21000000	0.85000000
101.62	1.24000000	0.83000000
102.46	1.24000000	0.79000000
103.32	1.22000000	0.79000000
104.18	1.20000000	0.79000000
105.07	1.16000000	0.80000000
105.97	1.12000000	0.86000000
106.42	1.10000000	0.89000000
106.88	1.07000000	0.96000000
107.34	1.09000000	1.06000000
107.81	1.15000000	1.14000000
108.28	1.24000000	1.19000000
108.75	1.32000000	1.21000000
109.23	1.40000000	1.23000000
109.72	1.49000000	1.22000000
110.20	1.57000000	1.19000000
110.70	1.64000000	1.15000000
111.69	1.75000000	1.04000000
112.71	1.82000000	0.93000000
113.74	1.82000000	0.78000000
116.96	1.67000000	0.56000000
118.08	1.58000000	0.53000000
118.64	1.54000000	0.54000000
119.21	1.51000000	0.56000000
119.79	1.49000000	0.59000000
122.15	1.50000000	0.70000000
122.75	1.52000000	0.71000000
123.24	1.54000000	0.71000000
123.98	1.55000000	0.71000000
126.51	1.59000000	0.70000000
129.15	1.63000000	0.68000000
131.89	1.65000000	0.65000000
134.76	1.66000000	0.63000000
137.76	1.67000000	0.60000000
139.30	1.66000000	0.59000000
140.89	1.66000000	0.60000000
141.69	1.66000000	0.59000000
142.51	1.66000000	0.59000000
144.16	1.65000000	0.58000000
145.86	1.64000000	0.58000000
146.72	1.64000000	0.58000000
147.60	1.63000000	0.58000000
148.48	1.61000000	0.57000000
149.37	1.59000000	0.58000000
150.28	1.55000000	0.58000000
151.19	1.50000000	0.60000000
152.12	1.44000000	0.65000000
153.06	1.38000000	0.74000000
153.44	1.36000000	0.80000000
154.01	1.33000000	0.89000000
154.40	1.34000000	0.99000000
154.97	1.38000000	1.10000000
155.36	1.42000000	1.18000000
155.95	1.51000000	1.29000000
156.34	1.60000000	1.36000000
156.94	1.74000000	1.43000000
157.33	1.84000000	1.46000000
157.94	2.00000000	1.49000000
158.34	2.12000000	1.49000000
159.36	2.42000000	1.41000000
159.97	2.59000000	1.33000000
160.39	2.72000000	1.26000000
161.01	2.91000000	1.05000000
162.07	2.90000000	0.59000000
163.13	2.69000000	0.00000000
164.21	2.55000000	0.00000000
165.31	2.46000000	0.00000000
166.42	2.40000000	0.00000000
167.54	2.34000000	0.00000000
169.84	2.25000000	0.00000000
172.19	2.17000000	0.00000000
177.11	2.03000000	0.00000000
183.67	1.91000000	0.00000000
190.74	1.84000000	0.00000000
200.00	1.78990000	0.00000000
206.63	1.75000000	0.00000000
209.99	1.74676000	0.00000000
219.98	1.71499000	0.00000000
225.42	1.69000000	0.00000000
229.98	1.69056000	0.00000000
239.99	1.67118000	0.00000000
247.96	1.65000000	0.00000000
250.01	1.65537000	0.00000000
259.97	1.64227000	0.00000000
269.99	1.63124000	0.00000000
279.99	1.62184000	0.00000000
290.01	1.61374000	0.00000000
299.98	1.60669000	0.00000000
319.95	1.59506000	0.00000000
339.95	1.58590000	0.00000000
359.99	1.57852000	0.00000000
379.96	1.57248000	0.00000000
399.94	1.56746000	0.00000000
419.99	1.56324000	0.00000000
439.96	1.55965000	0.00000000
460.04	1.55657000	0.00000000
479.99	1.55390000	0.00000000
499.92	1.55157000	0.00000000
520.05	1.54953000	0.00000000
539.98	1.54773000	0.00000000
559.98	1.54613000	0.00000000
579.89	1.54471000	0.00000000
600.10	1.54343000	0.00000000
619.90	1.54228000	0.00000000
640.06	1.54124000	0.00000000
659.82	1.54030000	0.00000000
680.09	1.53944000	0.00000000
700.06	1.53865000	0.00000000
719.98	1.53794000	0.00000000
740.18	1.53728000	0.00000000
760.15	1.53667000	0.00000000
779.75	1.53611000	0.00000000
799.87	1.53560000	0.00000000
819.97	1.53512000	0.00000000
839.97	1.53467000	0.00000000
859.78	1.53426000	0.00000000
879.91	1.53387000	0.00000000
899.71	1.53351000	0.00000000
919.73	1.53317000	0.00000000
939.95	1.53285000	0.00000000
959.60	1.53255000	0.00000000
980.08	1.53227000	0.00000000
999.84	1.53200000	0.00000000
1100.09	1.53088000	0.00000000
1200.19	1.53000000	0.00000000
1299.99	1.52930000	0.00000000
1399.95	1.52873000	0.00000000
1499.88	1.52824000	0.00000000
1599.95	1.52782000	0.00000000
1699.99	1.52745000	0.00000000
1799.94	1.52712000	0.00000000
1899.79	1.52682000	0.00000000
2000.00	1.52654000	0.00000000
2099.93	1.52627000	0.00000000
2199.79	1.52602000	0.00000000
2299.76	1.52578000	0.00000000
2399.92	1.52554000	0.00000000
