; From SOPRA S.A. http://www.sopra-sa.com/indices.htm
; Filename    Symbol               Range (nm)     Description
; NI2SI       Ni2Si               213    12398    Nickel Silicide
; lambda/nm       n         k
213.77	1.47000000	1.31800000
217.52	1.48900000	1.32000000
221.40	1.51200000	1.31500000
225.43	1.53200000	1.33000000
229.60	1.55000000	1.33600000
233.93	1.56700000	1.34500000
238.43	1.58700000	1.35300000
243.11	1.60600000	1.36300000
247.97	1.62700000	1.37200000
253.03	1.65100000	1.37900000
258.30	1.67300000	1.38400000
263.80	1.69500000	1.38400000
269.53	1.71100000	1.38600000
275.52	1.72800000	1.38800000
281.78	1.74300000	1.38900000
288.34	1.75700000	1.38800000
295.20	1.76500000	1.38700000
302.40	1.77100000	1.38600000
309.96	1.77000000	1.38800000
317.91	1.76700000	1.39500000
326.28	1.76000000	1.40700000
335.10	1.75100000	1.42300000
344.40	1.73300000	1.44700000
354.24	1.73600000	1.49400000
364.66	1.73900000	1.52500000
375.71	1.73900000	1.56200000
387.45	1.74200000	1.60500000
399.95	1.74900000	1.65200000
413.28	1.75800000	1.69900000
427.54	1.76400000	1.75100000
442.80	1.77200000	1.81100000
459.20	1.78400000	1.88200000
476.87	1.80300000	1.96500000
495.94	1.85100000	2.04500000
516.60	1.88900000	2.11500000
539.07	1.93100000	2.19500000
563.57	1.97900000	2.27400000
590.41	2.02700000	2.36000000
619.93	2.07500000	2.45200000
652.55	2.12900000	2.56400000
688.81	2.20900000	2.69600000
729.32	2.31300000	2.82000000
774.91	2.43000000	2.94900000
826.57	2.57000000	3.07500000
885.61	2.72800000	3.20800000
953.73	2.92300000	3.29800000
1033.21	3.08100000	3.37600000
1127.14	3.22200000	3.47600000
1239.85	3.37200000	3.62600000
1377.61	3.61300000	3.81500000
1549.81	3.75700000	3.87200000
1771.22	4.09400000	3.89900000
2066.42	3.78300000	4.25900000
2479.70	3.78400000	5.09700000
