; Refractive index spectrum for Ni by Johnson
;
; P. B. Johnson and R. W. Christy. Optical constants of transition metals: Ti, V, Cr, Mn, Fe, Co, Ni, and Pd, <a href="http://dx.doi.org/10.1103/PhysRevB.9.5056"><i>Phys. Rev. B</i> <b>9</b>, 5056-5070 (1974)</a>
;
; Room temperature
;
; lambda/nm    n     k
188.00 	1.26000000 	1.60000000 
192.00 	1.29000000 	1.64000000 
195.00 	1.29000000 	1.69000000 
199.00 	1.28000000 	1.75000000 
203.00 	1.28000000 	1.82000000 
207.00 	1.29000000 	1.89000000 
212.00 	1.32000000 	1.96000000 
216.00 	1.34000000 	2.02000000 
221.00 	1.38000000 	2.09000000 
226.00 	1.43000000 	2.15000000 
231.00 	1.49000000 	2.20000000 
237.00 	1.57000000 	2.25000000 
243.00 	1.65000000 	2.29000000 
249.00 	1.73000000 	2.31000000 
255.00 	1.82000000 	2.32000000 
262.00 	1.89000000 	2.30000000 
269.00 	1.96000000 	2.29000000 
276.00 	2.01000000 	2.26000000 
284.00 	2.03000000 	2.23000000 
292.00 	2.03000000 	2.20000000 
301.00 	2.02000000 	2.18000000 
311.00 	2.01000000 	2.18000000 
320.00 	1.93000000 	2.19000000 
332.00 	1.84000000 	2.22000000 
342.00 	1.78000000 	2.26000000 
354.00 	1.74000000 	2.32000000 
368.00 	1.70000000 	2.40000000 
381.00 	1.72000000 	2.48000000 
397.00 	1.72000000 	2.57000000 
413.00 	1.70000000 	2.69000000 
431.00 	1.71000000 	2.82000000 
451.00 	1.73000000 	2.95000000 
471.00 	1.78000000 	3.09000000 
496.00 	1.82000000 	3.25000000 
521.00 	1.85000000 	3.42000000 
549.00 	1.92000000 	3.61000000 
582.00 	1.96000000 	3.80000000 
617.00 	1.99000000 	4.02000000 
659.00 	1.99000000 	4.26000000 
704.00 	2.06000000 	4.50000000 
756.00 	2.13000000 	4.73000000 
821.00 	2.26000000 	4.97000000 
892.00 	2.40000000 	5.23000000 
984.00 	2.48000000 	5.55000000 
1088.00 	2.65000000 	5.93000000 
1216.00 	2.79000000 	6.43000000 
1393.00 	2.96000000 	7.08000000 
1610.00 	3.14000000 	7.96000000 
1937.00 	3.47000000 	9.09000000 
