; From SOPRA S.A. http://www.sopra-sa.com/indices.htm
; Filename    Symbol               Range (nm)     Description
; P_SIAS      SiAs                240      840    Silicon Arsenide
; lambda/nm       n         k
240.00	1.64010000	3.38610000
242.00	1.65460000	3.41570000
244.00	1.66950000	3.45790000
246.00	1.69100000	3.51800000
248.00	1.70300000	3.56040000
250.00	1.72440000	3.62770000
252.00	1.74610000	3.68940000
254.00	1.77630000	3.76720000
256.00	1.80190000	3.83150000
258.00	1.83130000	3.91510000
260.00	1.88590000	4.00640000
262.00	1.93380000	4.10290000
264.00	2.00230000	4.19400000
266.00	2.07100000	4.29850000
268.00	2.16560000	4.40940000
270.00	2.27290000	4.51650000
272.00	2.39340000	4.62150000
274.00	2.54290000	4.71530000
276.00	2.70030000	4.79350000
278.00	2.88060000	4.86300000
280.00	3.05620000	4.91350000
282.00	3.26330000	4.94930000
284.00	3.48110000	4.96720000
286.00	3.68730000	4.96300000
288.00	3.92610000	4.91890000
290.00	4.14860000	4.84350000
292.00	4.34430000	4.72470000
294.00	4.50660000	4.57980000
296.00	4.63900000	4.42380000
298.00	4.73170000	4.26730000
300.00	4.80650000	4.12770000
302.00	4.85807500	3.99217600
304.00	4.89420000	3.87290000
306.00	4.91965000	3.76692500
308.00	4.93920000	3.67130000
310.00	4.96106900	3.58086900
312.00	4.97970000	3.49930000
314.00	4.98955000	3.43056200
316.00	4.99880000	3.36860000
318.00	5.01626300	3.30705000
320.00	5.03450000	3.25080000
322.00	5.04716900	3.20431200
324.00	5.05980000	3.16250000
326.00	5.07654400	3.12120600
328.00	5.09520000	3.08210000
330.00	5.11463200	3.04521800
332.00	5.13580000	3.01130000
334.00	5.15923700	2.98163100
336.00	5.18510000	2.95460000
338.00	5.21311900	2.92870000
340.00	5.24510000	2.90490000
342.00	5.28321800	2.88396200
344.00	5.32610000	2.86500000
346.00	5.37175600	2.84819400
348.00	5.42420000	2.83110000
350.00	5.48720600	2.81245600
352.00	5.55950000	2.78890000
354.00	5.64143800	2.75736900
356.00	5.73190000	2.71570000
358.00	5.83086200	2.66235000
360.00	5.93540000	2.59240000
362.00	6.04616200	2.50060700
364.00	6.15240000	2.38640000
366.00	6.24520000	2.24373700
368.00	6.31970000	2.08380000
370.00	6.36770600	1.91408100
372.00	6.39030000	1.73960000
374.00	6.38458700	1.56589300
376.00	6.35430000	1.39890000
378.00	6.29890600	1.24670000
380.00	6.22830000	1.10840000
382.00	6.15203100	0.98400000
384.00	6.07060000	0.87890000
386.00	5.98282500	0.80141900
388.00	5.90330000	0.74280000
390.00	5.85758800	0.70568800
392.00	5.81160000	0.66420000
394.00	5.72988100	0.57668800
396.00	5.64210000	0.49310000
398.00	5.56914400	0.46159400
400.00	5.50190000	0.44590000
402.00	5.43735600	0.42419400
404.00	5.37810000	0.40130000
406.00	5.32593200	0.37222500
408.00	5.28020000	0.34460000
410.00	5.24252500	0.32596900
412.00	5.20790000	0.31160000
414.00	5.17100600	0.29944400
416.00	5.13440000	0.28900000
418.00	5.09866900	0.27938100
420.00	5.06440000	0.26970000
422.00	5.04098900	0.26254200
424.00	5.00855000	0.25489500
426.00	4.97077800	0.24679700
428.00	4.93136300	0.23828600
430.00	4.89400000	0.22940000
432.00	4.86724100	0.21972500
434.00	4.84436500	0.21027100
436.00	4.82299500	0.20202600
438.00	4.80178200	0.19511500
440.00	4.78040000	0.18880000
442.00	4.75655300	0.18254900
444.00	4.73252400	0.17653400
446.00	4.70958000	0.17062200
448.00	4.68810600	0.16484500
450.00	4.66760000	0.15940000
452.00	4.64809600	0.15447600
454.00	4.62934400	0.15003200
456.00	4.61119700	0.14612600
458.00	4.59348200	0.14276300
460.00	4.57600000	0.13990000
462.00	4.55821400	0.13788100
464.00	4.54069300	0.13590600
466.00	4.52372600	0.13329500
468.00	4.50745900	0.12985800
470.00	4.49190000	0.12590000
472.00	4.47748300	0.12122600
474.00	4.46351800	0.11643300
476.00	4.44943700	0.11208200
478.00	4.43514200	0.10830300
480.00	4.42100000	0.10480000
482.00	4.40742600	0.10142700
484.00	4.39395500	0.09823400
486.00	4.38006500	0.09519700
488.00	4.36590600	0.09231400
490.00	4.35230000	0.08960000
492.00	4.34065900	0.08711300
494.00	4.32948700	0.08475000
496.00	4.31780400	0.08243900
498.00	4.30545200	0.08015000
500.00	4.29310000	0.07790000
502.00	4.28116700	0.07562000
504.00	4.26955900	0.07343600
506.00	4.25838400	0.07146000
508.00	4.24767600	0.06970800
510.00	4.23740000	0.06810000
512.00	4.22759000	0.06655900
514.00	4.21817300	0.06515000
516.00	4.20905700	0.06388400
518.00	4.20025700	0.06278800
520.00	4.19190000	0.06190000
522.00	4.18425600	0.06128600
524.00	4.17696400	0.06090500
526.00	4.17006200	0.06094600
528.00	4.16319300	0.06120900
530.00	4.15560000	0.06110000
532.00	4.14532700	0.05969700
534.00	4.13481800	0.05773000
536.00	4.12593700	0.05534200
538.00	4.11890600	0.05279900
540.00	4.11230000	0.05050000
542.00	4.10480200	0.04925800
544.00	4.09734400	0.04837500
546.00	4.09031300	0.04752700
548.00	4.08375900	0.04660200
550.00	4.07740000	0.04570000
552.00	4.07104800	0.04481900
554.00	4.06474400	0.04394200
556.00	4.05842700	0.04301900
558.00	4.05209400	0.04207400
560.00	4.04580000	0.04120000
562.00	4.03960300	0.04055400
564.00	4.03345700	0.03997900
566.00	4.02740100	0.03940100
568.00	4.02137100	0.03877800
570.00	4.01520000	0.03810000
572.00	4.00871700	0.03728600
574.00	4.00192600	0.03643100
576.00	3.99451800	0.03557600
578.00	3.98670100	0.03475600
580.00	3.97920000	0.03400000
582.00	3.97309900	0.03340700
584.00	3.96754600	0.03286600
586.00	3.96221300	0.03228900
588.00	3.95695400	0.03167400
590.00	3.95180000	0.03110000
592.00	3.94659900	0.03067400
594.00	3.94149800	0.03028900
596.00	3.93661700	0.02987200
598.00	3.93193800	0.02942000
600.00	3.92730000	0.02900000
602.00	3.92248000	0.02871100
604.00	3.91767600	0.02844200
606.00	3.91296100	0.02810800
608.00	3.90839100	0.02770400
610.00	3.90400000	0.02730000
612.00	3.89982700	0.02693900
614.00	3.89593000	0.02663000
616.00	3.89247300	0.02642200
618.00	3.88939500	0.02630500
620.00	3.88640000	0.02620000
622.00	3.88328600	0.02601300
624.00	3.87992300	0.02580600
626.00	3.87582400	0.02559000
628.00	3.87116800	0.02538100
630.00	3.86680000	0.02520000
632.00	3.86406700	0.02506700
634.00	3.86169100	0.02500200
636.00	3.85896100	0.02504800
638.00	3.85570500	0.02520000
640.00	3.85230000	0.02540000
642.00	3.84895300	0.02567800
644.00	3.84553800	0.02586900
646.00	3.84195400	0.02582300
648.00	3.83826500	0.02548600
650.00	3.83470000	0.02490000
652.00	3.83164300	0.02399600
654.00	3.82873500	0.02290000
656.00	3.82582800	0.02163400
658.00	3.82282800	0.02030500
660.00	3.81970000	0.01910000
662.00	3.81624000	0.01831300
664.00	3.81268400	0.01777800
666.00	3.80920500	0.01751300
668.00	3.80582200	0.01746200
670.00	3.80240000	0.01750000
672.00	3.79863600	0.01747100
674.00	3.79500000	0.01743000
676.00	3.79190500	0.01736600
678.00	3.78938600	0.01726300
680.00	3.78710000	0.01710000
682.00	3.78479900	0.01680100
684.00	3.78253300	0.01646600
686.00	3.78023900	0.01615800
688.00	3.77789000	0.01590300
690.00	3.77550000	0.01570000
692.00	3.77305600	0.01560000
694.00	3.77056400	0.01553200
696.00	3.76799500	0.01546700
698.00	3.76537800	0.01537000
700.00	3.76280000	0.01520000
702.00	3.76043000	0.01479400
704.00	3.75808500	0.01437900
706.00	3.75562800	0.01414300
708.00	3.75305600	0.01410200
710.00	3.75050000	0.01410000
712.00	3.74803500	0.01400400
714.00	3.74570200	0.01387600
716.00	3.74361800	0.01370000
718.00	3.74176700	0.01349200
720.00	3.74000000	0.01330000
722.00	3.73817100	0.01320100
724.00	3.73633000	0.01313000
726.00	3.73443000	0.01306000
728.00	3.73249300	0.01298000
730.00	3.73060000	0.01290000
732.00	3.72897700	0.01283700
734.00	3.72730200	0.01275400
736.00	3.72528900	0.01261400
738.00	3.72293000	0.01241700
740.00	3.72050000	0.01220000
742.00	3.71825200	0.01198300
744.00	3.71606800	0.01178600
746.00	3.71396700	0.01165500
748.00	3.71193000	0.01158200
750.00	3.70990000	0.01150000
752.00	3.70781000	0.01130200
754.00	3.70568100	0.01109500
756.00	3.70346600	0.01095800
758.00	3.70119900	0.01088900
760.00	3.69900000	0.01080000
762.00	3.69711800	0.01056300
764.00	3.69525900	0.01031400
766.00	3.69316600	0.01014700
768.00	3.69085300	0.01007000
770.00	3.68860000	0.01000000
772.00	3.68676800	0.00985300
774.00	3.68504800	0.00968600
776.00	3.68326700	0.00951000
778.00	3.68140600	0.00934100
780.00	3.67960000	0.00920000
782.00	3.67797300	0.00916300
784.00	3.67643800	0.00913000
786.00	3.67499400	0.00901900
788.00	3.67360300	0.00882200
790.00	3.67220000	0.00860000
792.00	3.67064900	0.00840000
794.00	3.66907800	0.00820000
796.00	3.66757500	0.00798400
798.00	3.66614200	0.00776800
800.00	3.66470000	0.00760000
802.00	3.66314200	0.00756800
804.00	3.66157500	0.00758400
806.00	3.66005900	0.00761900
808.00	3.65861000	0.00763800
810.00	3.65720000	0.00760000
812.00	3.65589500	0.00734800
814.00	3.65453100	0.00709600
816.00	3.65278100	0.00702600
818.00	3.65079400	0.00714900
820.00	3.64920000	0.00730000
822.00	3.64913500	0.00732500
824.00	3.64939300	0.00731400
826.00	3.64929700	0.00727800
828.00	3.64860200	0.00723300
830.00	3.64750000	0.00720000
832.00	3.64570300	0.00729400
834.00	3.64375000	0.00733100
836.00	3.64191400	0.00722100
838.00	3.64047300	0.00687400
840.00	3.63970000	0.00620000
