; From SOPRA S.A. http://www.sopra-sa.com/indices.htm
; Filename    Symbol               Range (nm)     Description
; SIPOLY40
; lambda/nm       n         k
190.75	0.89083900	2.43446900
192.23	0.90697100	2.46229200
193.73	0.92398600	2.48995400
195.25	0.94178800	2.51737400
196.80	0.96005400	2.54358100
198.38	0.97833900	2.56715300
199.98	0.99691100	2.58936600
201.60	1.01572300	2.61029600
203.25	1.03526900	2.63213900
204.93	1.05694100	2.65956300
206.64	1.07799600	2.68524400
208.38	1.09404400	2.69889900
210.14	1.11141500	2.71404200
211.94	1.13414500	2.73910400
213.77	1.16077300	2.77005800
215.63	1.18574500	2.79966900
217.52	1.20830400	2.82848200
219.44	1.24085300	2.86563300
221.40	1.26936800	2.90261900
223.40	1.30532200	2.94083700
225.43	1.34687200	2.97861800
227.50	1.39563700	3.01351600
229.60	1.44804800	3.03700900
231.75	1.49961900	3.04744100
233.93	1.53715000	3.05010100
236.16	1.55771200	3.05555900
238.43	1.57097700	3.07216300
240.75	1.58060700	3.10002100
243.11	1.59071400	3.13745000
245.52	1.60498200	3.18365100
247.97	1.62255200	3.23775600
250.48	1.64597000	3.29830100
253.03	1.67303700	3.36517000
255.64	1.70726700	3.43807400
258.30	1.74733300	3.51822100
261.02	1.79459200	3.60784800
263.80	1.85359600	3.70991200
266.63	1.92893800	3.82722600
269.53	2.03224000	3.95684400
272.49	2.17160100	4.08671600
275.52	2.34907100	4.20159900
278.62	2.62865800	4.32109700
281.78	2.78541800	4.36281100
285.02	3.05016300	4.41682500
288.34	3.39496600	4.40296000
291.73	3.72350300	4.22592700
295.20	3.91488900	3.97825300
298.76	4.00622500	3.76894400
302.40	4.05717300	3.60573300
306.14	4.09120400	3.48021600
309.96	4.12200200	3.38004200
313.89	4.15841500	3.29841200
317.91	4.19850400	3.23040500
322.04	4.24603100	3.17104700
326.28	4.30058900	3.11752300
330.63	4.36030300	3.06844100
335.10	4.42528200	3.02340300
339.69	4.49586900	2.98447100
344.40	4.57849200	2.95196200
349.25	4.68189000	2.93214600
354.24	4.83520300	2.92583400
359.38	5.09148800	2.89904500
364.66	5.43562900	2.70014000
370.11	5.64338300	2.28045800
375.71	5.56143700	1.91640600
381.49	5.46113100	1.55845400
387.45	5.34286100	1.39247800
393.60	5.17268300	1.24457600
399.95	5.07994100	1.13685400
406.51	4.98502600	1.06582800
413.28	4.90410600	0.98859700
420.29	4.83386500	0.92347400
427.54	4.77169800	0.86627000
435.04	4.71264800	0.81141500
442.80	4.65825900	0.75956700
450.86	4.60768300	0.70889700
459.20	4.56039600	0.65963900
467.87	4.51569300	0.61134100
476.87	4.47369600	0.56620200
486.22	4.43346700	0.52523100
495.94	4.39476900	0.48736100
506.06	4.35705300	0.45239800
516.60	4.31992400	0.41915700
527.60	4.28315100	0.38621500
539.07	4.24646500	0.35400900
551.05	4.21103000	0.32344700
563.57	4.17196200	0.29246400
576.68	4.12939600	0.26154400
590.41	4.09427500	0.23647200
604.81	4.06503100	0.21590700
619.93	4.03591900	0.19485100
635.82	4.00708300	0.17375100
652.55	3.97636400	0.15282700
670.19	3.94438800	0.13235200
688.81	3.91357500	0.11460300
708.49	3.88421500	0.09921000
729.32	3.85526500	0.08478200
751.43	3.82619200	0.07134700
774.91	3.79975700	0.05841200
799.90	3.77480100	0.04582900
826.57	3.74679500	0.03535600
855.07	3.71670500	0.02770800
885.61	3.68658200	0.01831700
918.41	3.65876700	0.00715900
953.73	3.63343400	0.00161300
991.88	3.60921200	0.00158400
1033.21	3.58908600	0.00110400
1078.13	3.57189300	0.00109000
1127.14	3.55672900	0.00152300
1180.81	3.54377200	0.00106700
1239.85	3.52859100	0.00000000
1305.11	3.51153300	0.00000000
1377.61	3.49841600	0.00103000
1458.65	3.48912900	0.00000000
1549.81	3.47784700	0.00000000
1653.14	3.46620300	0.00000000
1771.22	3.45569900	0.00000000
1907.46	3.44787200	0.00099000
2066.42	3.44426000	0.00000000
2254.28	3.44786300	0.00000000
2479.70	3.45763500	0.00000000
