; From SOPRA S.A. http://www.sopra-sa.com/indices.htm
; Filename    Symbol               Range (nm)     Description
; SIPOLY      Si                  210     1239    Polysilicon
; lambda/nm       n         k
210.14	1.09220000	2.88310000
211.94	1.10090000	2.90360600
213.77	1.11840000	2.93150000
215.63	1.14237500	2.96529400
217.52	1.17050000	3.00350000
219.44	1.19796900	3.04418700
221.40	1.22990000	3.08720000
223.40	1.26980000	3.13376200
225.43	1.31770000	3.17780000
227.50	1.37850000	3.21563800
229.60	1.44110000	3.24130000
231.75	1.49894400	3.24150000
233.93	1.54330000	3.23450000
236.16	1.55796300	3.23246900
238.43	1.55880000	3.24040000
240.75	1.55514400	3.26931900
243.11	1.55040000	3.31330000
245.52	1.55126200	3.37039900
247.97	1.55720000	3.43970000
250.48	1.56976300	3.51966900
253.03	1.58940000	3.61020000
255.64	1.61655000	3.70928800
258.30	1.65280000	3.82110000
261.02	1.69610000	3.94773100
263.80	1.75780000	4.09340000
266.63	1.84298700	4.26903700
269.53	1.96840000	4.45660000
272.49	2.15662400	4.64814900
275.52	2.39520000	4.82430000
278.62	2.67333300	4.96418200
281.78	3.00860000	5.06430000
285.02	3.44290200	5.14667500
288.34	3.89250000	5.11390000
291.73	4.30740700	4.81354500
295.20	4.62830000	4.43270000
298.76	4.73979900	4.11512000
302.40	4.76010000	3.83840000
306.14	4.77064400	3.63769500
309.96	4.76630000	3.48410000
313.89	4.76873200	3.36293100
317.91	4.77900000	3.26670000
322.04	4.80813700	3.18317500
326.28	4.84790000	3.11190000
330.63	4.89223100	3.04714400
335.10	4.94560000	2.99250000
339.69	5.00373700	2.94735000
344.40	5.08680000	2.91860000
349.25	5.19221300	2.93819400
354.24	5.38390000	2.93040000
359.38	5.80733200	2.86335000
364.66	6.21530000	2.63740000
370.11	6.38978800	2.02885500
375.71	6.38870000	1.37800000
381.49	6.14004300	0.99800700
387.45	5.81550000	0.74650000
393.60	5.58196900	0.59899400
399.95	5.38180000	0.51500000
406.51	5.21596900	0.44355000
413.28	5.07550000	0.39160000
420.29	4.95258800	0.34943100
427.54	4.84470000	0.31610000
435.04	4.74682400	0.28783700
442.80	4.65860000	0.26340000
450.86	4.57823100	0.24077500
459.20	4.50500000	0.21850000
467.87	4.43795000	0.19255600
476.87	4.37600000	0.16860000
486.22	4.31774400	0.15245000
495.94	4.26320000	0.13960000
506.06	4.21200000	0.12741300
516.60	4.16390000	0.11610000
527.60	4.11859400	0.10515600
539.07	4.07590000	0.09410000
551.05	4.03563100	0.08128100
563.57	3.99750000	0.06970000
576.68	3.96108700	0.06316300
590.41	3.92660000	0.05760000
604.81	3.89436200	0.04945600
619.93	3.86360000	0.04100000
635.82	3.83325600	0.03338100
652.55	3.80450000	0.02640000
670.19	3.77841900	0.02005600
688.81	3.75420000	0.01490000
708.49	3.73136900	0.01181300
729.32	3.71000000	0.00980000
751.43	3.69049400	0.00817500
774.91	3.67140000	0.00690000
799.90	3.65110600	0.00563100
826.57	3.63050000	0.00460000
855.07	3.60900600	0.00401300
885.61	3.58940000	0.00360000
918.41	3.57575600	0.00314400
953.73	3.56360000	0.00270000
991.88	3.54898100	0.00219400
1033.21	3.53440000	0.00180000
1078.13	3.52152500	0.00180000
1127.14	3.50890000	0.00180000
1180.81	3.49585000	0.00157500
1239.85	3.48170000	0.00090000
