; From SOPRA S.A. http://www.sopra-sa.com/indices.htm
; Filename    Symbol               Range (nm)     Description
; SIPOLY70
; lambda/nm       n         k
190.75	0.93425800	2.23904900
192.23	0.94700600	2.26430800
193.73	0.96069100	2.28949600
195.25	0.97526700	2.31457400
196.80	0.99056400	2.33907800
198.38	1.00634800	2.36232700
199.98	1.02277100	2.38493300
201.60	1.03981100	2.40693000
203.25	1.05773900	2.42937400
204.93	1.07728600	2.45450600
206.64	1.09702900	2.47881700
208.38	1.11471300	2.49738200
210.14	1.13357100	2.51665200
211.94	1.15566900	2.54068200
213.77	1.18024600	2.56753700
215.63	1.20448300	2.59383800
217.52	1.22812300	2.61966800
219.44	1.25729400	2.64940200
221.40	1.28482400	2.67930300
223.40	1.31632300	2.70980800
225.43	1.35101300	2.74068600
227.50	1.38967400	2.77068500
229.60	1.43041400	2.79491200
231.75	1.47112200	2.81262800
233.93	1.50566400	2.82699300
236.16	1.53264300	2.84298500
238.43	1.55685400	2.86436800
240.75	1.58003800	2.89118100
243.11	1.60404600	2.92244100
245.52	1.63083000	2.95773800
247.97	1.65961800	2.99664100
250.48	1.69192400	3.03839200
253.03	1.72695800	3.08294800
255.64	1.76645700	3.13001200
258.30	1.81084800	3.18038700
261.02	1.86059200	3.23493600
263.80	1.91784200	3.29472900
266.63	1.98482200	3.36079900
269.53	2.06578100	3.43050400
272.49	2.16384000	3.49781200
275.52	2.27920200	3.55572200
278.62	2.44050000	3.61185900
281.78	2.54444400	3.63659300
285.02	2.69678700	3.66490900
288.34	2.88288100	3.66385700
291.73	3.06302500	3.59489300
295.20	3.19031000	3.49526000
298.76	3.27762800	3.40819700
302.40	3.34792400	3.33769300
306.14	3.41060400	3.28118300
309.96	3.47179700	3.23178900
313.89	3.53545400	3.18758600
317.91	3.60096400	3.14680600
322.04	3.67027700	3.10731100
326.28	3.74185200	3.06997200
330.63	3.81522900	3.03344300
335.10	3.89072800	2.99704000
339.69	3.96817400	2.96177600
344.40	4.05308800	2.92519100
349.25	4.14842900	2.89108400
354.24	4.26723800	2.86105200
359.38	4.43423200	2.82015400
364.66	4.64118900	2.70168600
370.11	4.79097700	2.47755100
375.71	4.80267800	2.26242400
381.49	4.80149900	2.04372200
387.45	4.77831400	1.91230000
393.60	4.72465000	1.78457600
399.95	4.70518700	1.68004500
406.51	4.68082600	1.59362000
413.28	4.65860100	1.50485500
420.29	4.63696500	1.42299600
427.54	4.61607000	1.34556000
435.04	4.59383900	1.26962800
442.80	4.57209800	1.19615300
450.86	4.55057700	1.12438100
459.20	4.52899400	1.05403300
467.87	4.50697200	0.98492300
476.87	4.48528100	0.91957100
486.22	4.46319300	0.85826000
495.94	4.44049100	0.80009200
506.06	4.41669400	0.74477500
516.60	4.39116400	0.69150700
527.60	4.36362100	0.63944200
539.07	4.33387800	0.58842500
551.05	4.30424200	0.53989600
563.57	4.26630200	0.48962100
576.68	4.22041300	0.43765200
590.41	4.18578800	0.39557700
604.81	4.15990900	0.36178600
619.93	4.13292700	0.32700300
635.82	4.10531900	0.29213400
652.55	4.07304600	0.25722500
670.19	4.03704200	0.22251900
688.81	4.00162900	0.19234000
708.49	3.96726400	0.16613300
729.32	3.93248400	0.14159400
751.43	3.89640300	0.11884300
774.91	3.86475500	0.09702200
799.90	3.83665100	0.07583500
826.57	3.80328600	0.05818400
855.07	3.76638700	0.04528900
885.61	3.72822300	0.02918400
918.41	3.69090200	0.00980000
953.73	3.65669300	0.00116000
991.88	3.62459600	0.00113300
1033.21	3.59953800	0.00111200
1078.13	3.57969400	0.00000000
1127.14	3.56336300	0.00000000
1180.81	3.55094600	0.00000000
1239.85	3.53429400	0.00000000
1305.11	3.51357900	0.00000000
1377.61	3.49920800	0.00000000
1458.65	3.49112700	0.00000000
1549.81	3.47892400	0.00000000
1653.14	3.46528900	0.00000000
1771.22	3.45284900	0.00000000
1907.46	3.44424800	0.00000000
2066.42	3.44213000	0.00000000
2254.28	3.44986900	0.00000000
2479.70	3.46881100	0.00100700
