; From SOPRA S.A. http://www.sopra-sa.com/indices.htm
; Filename    Symbol               Range (nm)     Description
; SIPOLY20
; lambda/nm       n         k
190.75	0.86045300	2.56673400
192.23	0.87890200	2.59631600
193.73	0.89819700	2.62567500
195.25	0.91820800	2.65469700
196.80	0.93850700	2.68206700
198.38	0.95850800	2.70585000
199.98	0.97855700	2.72778400
201.60	0.99858800	2.74796800
203.25	1.01924700	2.76938700
204.93	1.04236400	2.79837200
206.64	1.06431100	2.82497600
208.38	1.07925700	2.83524000
210.14	1.09562600	2.84753000
211.94	1.11878300	2.87328400
213.77	1.14679400	2.90703300
215.63	1.17225100	2.93889400
217.52	1.19405100	2.96972400
219.44	1.22887700	3.01195000
221.40	1.25803100	3.05377400
223.40	1.29700000	3.09727400
225.43	1.34321700	3.13978900
227.50	1.39888300	3.17805500
229.60	1.45928300	3.20105800
231.75	1.51830000	3.20650900
233.93	1.55789700	3.20115100
236.16	1.57409200	3.19936800
238.43	1.57988700	3.21265000
240.75	1.58024700	3.24114300
243.11	1.58082000	3.28269400
245.52	1.58646100	3.33625500
247.97	1.59624900	3.40066600
250.48	1.61344300	3.47400800
253.03	1.63487900	3.55611400
255.64	1.66530400	3.64672500
258.30	1.70219700	3.74732800
261.02	1.74754000	3.86112900
263.80	1.80757800	3.99240300
266.63	1.88859900	4.14520200
269.53	2.00743200	4.31629400
272.49	2.17562700	4.48926400
275.52	2.39631400	4.64298100
278.62	2.75752900	4.80482100
281.78	2.95039700	4.85767500
285.02	3.29160700	4.92823400
288.34	3.74337400	4.90496300
291.73	4.17185800	4.65546000
295.20	4.40767500	4.30829800
298.76	4.50303900	4.01578900
302.40	4.54166900	3.78877400
306.14	4.55651400	3.61540900
309.96	4.56655000	3.47990400
313.89	4.58417000	3.37223500
317.91	4.60660500	3.28531900
322.04	4.63895500	3.21221800
326.28	4.68162900	3.14754100
330.63	4.73177600	3.08984800
335.10	4.78937900	3.03892100
339.69	4.85513900	2.99753800
344.40	4.93610700	2.96792900
349.25	5.04499900	2.95804800
354.24	5.22201800	2.96815200
359.38	5.53969500	2.95131500
364.66	5.97880000	2.69771100
370.11	6.22857500	2.14272200
375.71	6.08180000	1.67316800
381.49	5.91093300	1.21598900
387.45	5.72416200	1.02629400
393.60	5.47024100	0.86630800
399.95	5.32544900	0.75845700
406.51	5.18138400	0.70070400
413.28	5.05995100	0.63365000
420.29	4.95672100	0.58195600
427.54	4.86698400	0.54023100
435.04	4.78360100	0.50115000
442.80	4.70784900	0.46518500
450.86	4.63839800	0.42980900
459.20	4.57454600	0.39561600
467.87	4.51533100	0.36200300
476.87	4.46040500	0.33100600
486.22	4.40870300	0.30412800
495.94	4.35995800	0.28019300
506.06	4.31356400	0.25910600
516.60	4.26927000	0.23940400
527.60	4.22685200	0.21930900
539.07	4.18600100	0.19965800
551.05	4.14711100	0.18105600
563.57	4.10766600	0.16278500
576.68	4.06764500	0.14565900
590.41	4.03246100	0.13179600
604.81	4.00119200	0.11998700
619.93	3.97086000	0.10798800
635.82	3.94138300	0.09596300
652.55	3.91183400	0.08421500
670.19	3.88264300	0.07306000
688.81	3.85495600	0.06346100
708.49	3.82897000	0.05512800
729.32	3.80392100	0.04736400
751.43	3.77951900	0.04000600
774.91	3.75656200	0.03292800
799.90	3.73371600	0.02601300
826.57	3.70927000	0.02025500
855.07	3.68369400	0.01608200
885.61	3.65890400	0.01114100
918.41	3.63739700	0.00524100
953.73	3.61795500	0.00225500
991.88	3.59897000	0.00192600
1033.21	3.58212400	0.00190200
1078.13	3.56669600	0.00153500
1127.14	3.55231100	0.00151800
1180.81	3.53899300	0.00106300
1239.85	3.52479100	0.00105100
1305.11	3.51016900	0.00000000
1377.61	3.49788900	0.00000000
1458.65	3.48779800	0.00000000
1549.81	3.47712900	0.00000000
1653.14	3.46681200	0.00000000
1771.22	3.45759900	0.00000000
1907.46	3.45028900	0.00000000
2066.42	3.44567900	0.00000000
2254.28	3.44652700	0.00000000
2479.70	3.45019200	0.00000000
