; From SOPRA S.A. http://www.sopra-sa.com/indices.htm
; Filename    Symbol               Range (nm)     Description
; SIPOLY60
; lambda/nm       n         k
190.75	0.92029400	2.30374900
192.23	0.93415500	2.32984000
193.73	0.94893600	2.35583300
195.25	0.96457300	2.38167200
196.80	0.98084500	2.40673100
198.38	0.99744500	2.43008300
199.98	1.01456800	2.45256000
201.60	1.03218200	2.47420800
203.25	1.05063600	2.49645700
204.93	1.07088400	2.52234100
206.64	1.09105900	2.54710400
208.38	1.10818800	2.56406900
210.14	1.12654300	2.58199700
211.94	1.14885000	2.60637000
213.77	1.17411000	2.63457200
215.63	1.19859600	2.66196500
217.52	1.22188800	2.68878400
219.44	1.25218800	2.72095000
221.40	1.28006000	2.75318100
223.40	1.31304200	2.78621100
225.43	1.35000000	2.81934300
227.50	1.39198500	2.85092900
229.60	1.43654700	2.87489700
231.75	1.48080000	2.89021100
233.93	1.51630000	2.90074000
236.16	1.54115400	2.91329600
238.43	1.56176000	2.93313800
240.75	1.58049000	2.96033400
243.11	1.59994000	2.99366700
245.52	1.62263800	3.03259600
247.97	1.64778600	3.07654600
250.48	1.67723700	3.12451600
253.03	1.70974100	3.17644400
255.64	1.74762200	3.23202100
258.30	1.79073300	3.29218700
261.02	1.83983500	3.35824200
263.80	1.89787600	3.43185100
266.63	1.96785700	3.51459400
269.53	2.05639600	3.60366700
272.49	2.16815300	3.69105600
275.52	2.30384000	3.76711600
278.62	2.50346300	3.84326500
281.78	2.62447000	3.87335200
285.02	2.81298900	3.90971900
288.34	3.04999100	3.90442400
291.73	3.27775200	3.80089800
295.20	3.42587400	3.65392800
298.76	3.51488200	3.52763100
302.40	3.57935200	3.42721800
306.14	3.63314300	3.34830500
309.96	3.68479800	3.28231800
313.89	3.73985100	3.22581400
317.91	3.79727800	3.17602300
322.04	3.85962800	3.12991500
326.28	3.92576300	3.08717700
330.63	3.99476100	3.04644600
335.10	4.06687600	3.00713300
339.69	4.14210700	2.97059700
344.40	4.22625900	2.93528300
349.25	4.32416500	2.90581800
354.24	4.45411900	2.88358900
359.38	4.65006300	2.84754400
364.66	4.90174600	2.70357200
370.11	5.07136400	2.41662800
375.71	5.05398900	2.15260700
381.49	5.02204900	1.88773600
387.45	4.96822600	1.74392400
393.60	4.87656900	1.60816100
399.95	4.83292300	1.50169800
406.51	4.78496500	1.41956100
413.28	4.74306400	1.33401500
420.29	4.70502800	1.25725900
427.54	4.67013400	1.18622200
435.04	4.63538700	1.11704700
442.80	4.60253000	1.05057500
450.86	4.57110900	0.98568300
459.20	4.54076100	0.92225800
467.87	4.51099900	0.86001000
476.87	4.48237800	0.80134200
486.22	4.45409700	0.74677800
495.94	4.42592800	0.69536200
506.06	4.39737000	0.64682800
516.60	4.36787000	0.60024800
527.60	4.33716300	0.55457500
539.07	4.30503100	0.50985500
551.05	4.27339700	0.46734500
563.57	4.23503000	0.42354400
576.68	4.19020700	0.37864300
590.41	4.15537900	0.34227200
604.81	4.12834500	0.31291300
619.93	4.10062500	0.28272500
635.82	4.07258300	0.25246900
652.55	4.04081000	0.22224800
670.19	4.00613700	0.19231900
688.81	3.97225100	0.16631000
708.49	3.93955100	0.14373200
729.32	3.90671500	0.12258200
751.43	3.87297100	0.10294400
774.91	3.84306200	0.08410700
799.90	3.81600600	0.06579700
826.57	3.78443100	0.05053200
855.07	3.74980600	0.03939100
885.61	3.71432700	0.02554800
918.41	3.68018100	0.00890400
953.73	3.64893400	0.00115300
991.88	3.61946600	0.00112900
1033.21	3.59605300	0.00000000
1078.13	3.57709300	0.00000000
1127.14	3.56115200	0.00000000
1180.81	3.54855500	0.00000000
1239.85	3.53239200	0.00105800
1305.11	3.51289600	0.00000000
1377.61	3.49894400	0.00000000
1458.65	3.49046200	0.00000000
1549.81	3.47856500	0.00000000
1653.14	3.46559400	0.00000000
1771.22	3.45379900	0.00000000
1907.46	3.44545600	0.00000000
2066.42	3.44283900	0.00000000
2254.28	3.44920000	0.00000000
2479.70	3.46508500	0.00000000
