; From SOPRA S.A. http://www.sopra-sa.com/indices.htm
; Filename    Symbol               Range (nm)     Description
; SIPOLY90
; lambda/nm       n         k
190.75	0.95976800	2.11111400
192.23	0.97033900	2.13482200
193.73	0.98188600	2.15850900
195.25	0.99439500	2.18216300
196.80	1.00780600	2.20563400
198.38	1.02203700	2.22870600
199.98	1.03714300	2.25157400
201.60	1.05312100	2.27424900
203.25	1.07006700	2.29707000
204.93	1.08824000	2.32075600
206.64	1.10714400	2.34418500
208.38	1.12600400	2.36577800
210.14	1.14592800	2.38759600
211.94	1.16762100	2.41093800
213.77	1.19082000	2.43518700
215.63	1.21453500	2.45935200
217.52	1.23881400	2.48321100
219.44	1.26568600	2.50825600
221.40	1.29244500	2.53362800
223.40	1.32095900	2.55929000
225.43	1.35117000	2.58589700
227.50	1.38336000	2.61295700
229.60	1.41676500	2.63781300
231.75	1.45075500	2.66024900
233.93	1.48359000	2.68199300
236.16	1.51479600	2.70451500
238.43	1.54605500	2.72871500
240.75	1.57788800	2.75457400
243.11	1.61068900	2.78155900
245.52	1.64527400	2.80952900
247.97	1.68089500	2.83834500
250.48	1.71839100	2.86774300
253.03	1.75785100	2.89771600
255.64	1.79985400	2.92805000
258.30	1.84590400	2.95926900
261.02	1.89580700	2.99144800
263.80	1.95009600	3.02468300
266.63	2.00943900	3.05917900
269.53	2.07367100	3.09313400
272.49	2.14361600	3.12465500
275.52	2.21938900	3.15165200
278.62	2.30948500	3.17591800
281.78	2.38247100	3.19242800
285.02	2.47059100	3.20914400
288.34	2.56872900	3.21729300
291.73	2.66657200	3.20683600
295.20	2.75437500	3.18753000
298.76	2.83431000	3.16932900
302.40	2.91103900	3.15325900
306.14	2.98667600	3.13890600
309.96	3.06306700	3.12165600
313.89	3.14102500	3.10179900
317.91	3.22051100	3.07926900
322.04	3.30214500	3.05341800
326.28	3.38342100	3.02723400
330.63	3.46469000	2.99945500
335.10	3.54636500	2.96922400
339.69	3.62796500	2.93687300
344.40	3.71453300	2.89821100
349.25	3.80550100	2.85532900
354.24	3.90399400	2.80988500
359.38	4.01735600	2.75766500
364.66	4.13890200	2.68157900
370.11	4.24205400	2.57042200
375.71	4.29867400	2.45348500
381.49	4.34678000	2.33111200
387.45	4.38189800	2.23128800
393.60	4.40359000	2.12777800
399.95	4.43357700	2.03148200
406.51	4.45883900	1.93979100
413.28	4.47791900	1.84684900
420.29	4.49097600	1.75609600
427.54	4.49979200	1.66659800
435.04	4.50407600	1.57755600
442.80	4.50583100	1.49024700
450.86	4.50515800	1.40474400
459.20	4.50198300	1.32048800
467.87	4.49615600	1.23752600
476.87	4.48891600	1.15864400
486.22	4.47971700	1.08364600
495.94	4.46835500	1.01177100
506.06	4.45441200	0.94266800
516.60	4.43708300	0.87582100
527.60	4.41606700	0.81077400
539.07	4.39125100	0.74698000
551.05	4.36572900	0.68625500
563.57	4.32871000	0.62285600
576.68	4.28072100	0.55655400
590.41	4.24655200	0.50295300
604.81	4.22304200	0.46022200
619.93	4.19758600	0.41615800
635.82	4.17088000	0.37197900
652.55	4.13762600	0.32761700
670.19	4.09896300	0.28327900
688.81	4.06049800	0.24469400
708.49	4.02279700	0.21119400
729.32	3.98412600	0.17980400
751.43	3.94335400	0.15078200
774.91	3.90822400	0.12297500
799.90	3.87802500	0.09597600
826.57	3.84107200	0.07350900
855.07	3.79961000	0.05705200
885.61	3.75606000	0.03644400
918.41	3.71237500	0.01157400
953.73	3.67222600	0.00000000
991.88	3.63486300	0.00000000
1033.21	3.60651100	0.00000000
1078.13	3.58489700	0.00110000
1127.14	3.56778700	0.00000000
1180.81	3.55573200	0.00000000
1239.85	3.53809700	0.00000000
1305.11	3.51494300	0.00000000
1377.61	3.49973600	0.00000000
1458.65	3.49245900	0.00000000
1549.81	3.47964100	0.00000000
1653.14	3.46468000	0.00000000
1771.22	3.45094900	0.00099300
1907.46	3.44183300	0.00000000
2066.42	3.44070900	0.00000000
2254.28	3.45120600	0.00000000
2479.70	3.47626900	0.00000000
