; From SOPRA S.A. http://www.sopra-sa.com/indices.htm
; Filename    Symbol               Range (nm)     Description
; SIPOLY80
; lambda/nm       n         k
190.75	0.94747700	2.17482800
192.23	0.95912700	2.19928800
193.73	0.97173500	2.22370500
195.25	0.98526700	2.24805100
196.80	0.99960900	2.27202400
198.38	1.01460100	2.29517800
199.98	1.03035000	2.31791400
201.60	1.04684200	2.34025300
203.25	1.06426500	2.36288800
204.93	1.08312100	2.38728600
206.64	1.10244000	2.41115100
208.38	1.12069600	2.43126200
210.14	1.14007500	2.45183300
211.94	1.16196800	2.47551900
213.77	1.18585900	2.50105500
215.63	1.20984000	2.52627900
217.52	1.23381000	2.55112300
219.44	1.26184000	2.57847900
221.40	1.28900300	2.60609100
223.40	1.31901400	2.63413500
225.43	1.35145600	2.66283300
227.50	1.38684900	2.69131600
229.60	1.42386200	2.71583500
231.75	1.46113900	2.73592500
233.93	1.49478600	2.75403400
236.16	1.52388200	2.77335800
238.43	1.55164600	2.79620000
240.75	1.57920300	2.82257300
243.11	1.60766600	2.85172300
245.52	1.63842100	2.88337100
247.97	1.67071100	2.91723400
250.48	1.70571100	2.95279600
253.03	1.74308000	2.99003600
255.64	1.78397700	3.02868600
258.30	1.82937700	3.06941000
261.02	1.87942600	3.11265800
263.80	1.93547700	3.15897600
266.63	1.99897900	3.20892200
269.53	2.07191000	3.26016900
272.49	2.15608500	3.30871100
275.52	2.25146700	3.35007700
278.62	2.37609100	3.38861900
281.78	2.46392600	3.40873600
285.02	2.58252800	3.43033700
288.34	2.72185800	3.43373400
291.73	2.85825500	3.39616100
295.20	2.96536900	3.33958000
298.76	3.04982300	3.28887800
302.40	3.12440700	3.24666200
306.14	3.19454600	3.21174300
309.96	3.26412700	3.17860800
313.89	3.33551900	3.14661000
317.91	3.40845500	3.11489200
322.04	3.48424300	3.08212400
326.28	3.56090000	3.05028100
330.63	3.63839400	3.01804900
335.10	3.71709200	2.98465600
339.69	3.79666600	2.95077300
344.40	3.88237900	2.91305800
349.25	3.97538000	2.87446700
354.24	4.08364200	2.83670100
359.38	4.22298200	2.79048600
364.66	4.38647200	2.69495400
370.11	4.51443400	2.52982700
375.71	4.55129800	2.36359500
381.49	4.57723500	2.19208300
387.45	4.58370400	2.07500400
393.60	4.56769000	1.95770300
399.95	4.57263300	1.85642200
406.51	4.57251400	1.76674800
413.28	4.57048600	1.67550000
420.29	4.56578500	1.58898000
427.54	4.55939000	1.50541900
435.04	4.55011400	1.42290100
442.80	4.53987100	1.34251300
450.86	4.52857400	1.26390000
459.20	4.51603000	1.18664200
467.87	4.50197600	1.11065500
476.87	4.48740700	1.03858500
486.22	4.47167700	0.97048400
495.94	4.45457600	0.90551700
506.06	4.43565300	0.84335600
516.60	4.41418700	0.78334400
527.60	4.38988000	0.72482800
539.07	4.36258100	0.66746000
551.05	4.33498800	0.61286400
563.57	4.29750200	0.55606100
576.68	4.25056500	0.49695700
590.41	4.21616400	0.44914300
604.81	4.19146200	0.41089500
619.93	4.16523800	0.37148400
635.82	4.13807700	0.33197800
652.55	4.10531300	0.29235600
670.19	4.06798100	0.25284200
688.81	4.03104300	0.21847200
708.49	3.99501100	0.18862800
729.32	3.95828800	0.16066600
751.43	3.91986400	0.13478800
774.91	3.88647700	0.10997700
799.90	3.85732400	0.08589900
826.57	3.82216700	0.06583900
855.07	3.78298900	0.05116300
885.61	3.74213500	0.03278600
918.41	3.70163400	0.01071100
953.73	3.66445700	0.00000000
991.88	3.62972800	0.00000000
1033.21	3.60302400	0.00000000
1078.13	3.58229500	0.00000000
1127.14	3.56557500	0.00000000
1180.81	3.55333900	0.00000000
1239.85	3.53619600	0.00000000
1305.11	3.51426100	0.00000000
1377.61	3.49947200	0.00000000
1458.65	3.49179300	0.00000000
1549.81	3.47928300	0.00000000
1653.14	3.46498400	0.00000000
1771.22	3.45189900	0.00000000
1907.46	3.44304000	0.00000000
2066.42	3.44141900	0.00098500
2254.28	3.45053800	0.00000000
2479.70	3.47254000	0.00000000
