; From SOPRA S.A. http://www.sopra-sa.com/indices.htm
; Filename    Symbol               Range (nm)     Description
; P_SIUD      Si                  240      840    Polysilicon (heavy As doped)
; lambda/nm       n         k
240.00	1.64030000	3.43740000
242.00	1.64830000	3.47630000
244.00	1.68970000	3.49630000
246.00	1.73050000	3.55630000
248.00	1.74500000	3.60680000
250.00	1.79470000	3.65950000
252.00	1.83670000	3.70140000
254.00	1.87870000	3.76610000
256.00	1.91200000	3.81720000
258.00	1.96920000	3.87110000
260.00	2.02110000	3.93630000
262.00	2.08530000	3.99430000
264.00	2.15000000	4.06050000
266.00	2.23050000	4.11320000
268.00	2.31750000	4.17720000
270.00	2.39110000	4.23630000
272.00	2.49270000	4.28670000
274.00	2.60740000	4.33950000
276.00	2.70430000	4.38700000
278.00	2.82280000	4.42570000
280.00	2.95040000	4.45790000
282.00	3.07820000	4.47700000
284.00	3.21570000	4.48990000
286.00	3.34530000	4.50350000
288.00	3.49510000	4.49270000
290.00	3.63190000	4.46530000
292.00	3.76560000	4.43580000
294.00	3.88830000	4.38870000
296.00	4.02020000	4.33470000
298.00	4.12440000	4.26310000
300.00	4.23290000	4.19960000
302.00	4.32489300	4.13056900
304.00	4.40750000	4.05670000
306.00	4.48295600	3.98020600
308.00	4.55350000	3.90330000
310.00	4.62438800	3.82922500
312.00	4.68880000	3.75710000
314.00	4.73901200	3.68718700
316.00	4.78300000	3.61930000
318.00	4.82666300	3.55308800
320.00	4.86850000	3.48930000
322.00	4.90875600	3.42963100
324.00	4.94810000	3.37090000
326.00	4.98797500	3.30836200
328.00	5.02630000	3.24840000
330.00	5.06052500	3.19796800
332.00	5.09350000	3.15060000
334.00	5.12722500	3.10170600
336.00	5.16170000	3.05260000
338.00	5.19763100	3.00233100
340.00	5.23490000	2.95310000
342.00	5.27367400	2.90851900
344.00	5.31380000	2.86340000
346.00	5.35501900	2.81322600
348.00	5.39780000	2.75960000
350.00	5.44340600	2.70213700
352.00	5.48920000	2.64230000
354.00	5.53201200	2.58356200
356.00	5.57470000	2.51950000
358.00	5.62116900	2.44300000
360.00	5.66510000	2.35960000
362.00	5.70095000	2.27277600
364.00	5.73030000	2.18160000
366.00	5.75344400	2.08413100
368.00	5.76870000	1.98690000
370.00	5.77374400	1.89775000
372.00	5.77080000	1.81080000
374.00	5.76086200	1.72139300
376.00	5.74530000	1.63370000
378.00	5.72614300	1.54985600
380.00	5.70240000	1.47130000
382.00	5.67223800	1.40124400
384.00	5.64020000	1.33650000
386.00	5.61140600	1.27455000
388.00	5.58230000	1.21660000
390.00	5.55047600	1.16335700
392.00	5.51760000	1.11380000
394.00	5.48423100	1.06706200
396.00	5.45130000	1.02340000
398.00	5.42043100	0.98303800
400.00	5.39010000	0.94520000
402.00	5.35885600	0.90906300
404.00	5.32810000	0.87500000
406.00	5.29888800	0.84324400
408.00	5.27080000	0.81340000
410.00	5.24385600	0.78533100
412.00	5.21780000	0.75850000
414.00	5.19248100	0.73226300
416.00	5.16760000	0.70680000
418.00	5.14289400	0.68208700
420.00	5.11810000	0.65810000
422.00	5.11810000	0.65810000
424.00	5.10090800	0.63897700
426.00	5.07667600	0.61954700
428.00	5.04822000	0.60007800
430.00	5.01835600	0.58083900
432.00	4.98990000	0.56210000
434.00	4.96925200	0.54465500
436.00	4.95154800	0.52764600
438.00	4.93550800	0.51031600
440.00	4.91985200	0.49275600
442.00	4.90330000	0.47590000
444.00	4.88269000	0.46066900
446.00	4.86077500	0.44669800
448.00	4.83894000	0.43301600
450.00	4.81754000	0.42068400
452.00	4.79590000	0.41280000
454.00	4.77069600	0.42151300
456.00	4.74854800	0.42732600
458.00	4.73786900	0.41015800
460.00	4.73715700	0.37123500
462.00	4.73500000	0.33310000
464.00	4.71576000	0.32289700
466.00	4.69264800	0.31981000
468.00	4.67216000	0.31519500
470.00	4.65586400	0.30658500
472.00	4.64040000	0.29770000
474.00	4.62410500	0.28983900
476.00	4.60772700	0.28219000
478.00	4.59104400	0.27470000
480.00	4.57424000	0.26714000
482.00	4.55790000	0.25910000
484.00	4.54257000	0.24926900
486.00	4.52828700	0.23945100
488.00	4.51557800	0.23086700
490.00	4.50431300	0.22392200
492.00	4.49370000	0.21820000
494.00	4.48324600	0.21431500
496.00	4.47256100	0.21093000
498.00	4.46074600	0.20686900
500.00	4.44785700	0.20187400
502.00	4.43490000	0.19660000
504.00	4.42289400	0.19121900
506.00	4.41132700	0.18598700
508.00	4.40024000	0.18130600
510.00	4.38954000	0.17723700
512.00	4.37900000	0.17350000
514.00	4.36833100	0.17004900
516.00	4.35765000	0.16664200
518.00	4.34671200	0.16298600
520.00	4.33573600	0.15901700
522.00	4.32540000	0.15490000
524.00	4.31680200	0.15058600
526.00	4.30899700	0.14634300
528.00	4.30181600	0.14242000
530.00	4.29484000	0.13890000
532.00	4.28740000	0.13570000
534.00	4.27789900	0.13283100
536.00	4.26805000	0.13027000
538.00	4.25902800	0.12809800
540.00	4.25097800	0.12620900
542.00	4.24300000	0.12430000
544.00	4.23421500	0.12193200
546.00	4.22532300	0.11940400
548.00	4.21660500	0.11678300
550.00	4.20817800	0.11413100
552.00	4.20000000	0.11150000
554.00	4.19212200	0.10892700
556.00	4.18455600	0.10651800
558.00	4.17737600	0.10440600
560.00	4.17056000	0.10262300
562.00	4.16400000	0.10110000
564.00	4.15770500	0.09987800
566.00	4.15145400	0.09880700
568.00	4.14501200	0.09785400
570.00	4.13832000	0.09687300
572.00	4.13150000	0.09560000
574.00	4.12469600	0.09351200
576.00	4.11770000	0.09108800
578.00	4.11012200	0.08848200
580.00	4.10216000	0.08585900
582.00	4.09460000	0.08340000
584.00	4.08855900	0.08145600
586.00	4.08319500	0.07981600
588.00	4.07829000	0.07847700
590.00	4.07362700	0.07737800
592.00	4.06900000	0.07640000
594.00	4.06397800	0.07537000
596.00	4.05881900	0.07437900
598.00	4.05361500	0.07345500
600.00	4.04835100	0.07258200
602.00	4.04290000	0.07170000
604.00	4.03698100	0.07073600
606.00	4.03097800	0.06972400
608.00	4.02514600	0.06867000
610.00	4.01957600	0.06756900
612.00	4.01420000	0.06640000
614.00	4.00900500	0.06508400
616.00	4.00406200	0.06375200
618.00	3.99947500	0.06249400
620.00	3.99523000	0.06134700
622.00	3.99120000	0.06030000
624.00	3.98740900	0.05943200
626.00	3.98358200	0.05861200
628.00	3.97923100	0.05769000
630.00	3.97448600	0.05668700
632.00	3.97010000	0.05580000
634.00	3.96725800	0.05529400
636.00	3.96480700	0.05494100
638.00	3.96212900	0.05464600
640.00	3.95902200	0.05436300
642.00	3.95570000	0.05410000
644.00	3.95218200	0.05387600
646.00	3.94844900	0.05358800
648.00	3.94447900	0.05321700
650.00	3.94028200	0.05265400
652.00	3.93590000	0.05170000
654.00	3.93121800	0.04976600
656.00	3.92656100	0.04763300
658.00	3.92224600	0.04581700
660.00	3.91832900	0.04449400
662.00	3.91460000	0.04350000
664.00	3.91083800	0.04297100
666.00	3.90727700	0.04263800
668.00	3.90424400	0.04228200
670.00	3.90159200	0.04183900
672.00	3.89870000	0.04140000
674.00	3.89442800	0.04099900
676.00	3.89001200	0.04060200
678.00	3.88628400	0.04017500
680.00	3.88337200	0.03972600
682.00	3.88070000	0.03930000
684.00	3.87789300	0.03896100
686.00	3.87505000	0.03865000
688.00	3.87209000	0.03833400
690.00	3.86899100	0.03800700
692.00	3.86580000	0.03770000
694.00	3.86252300	0.03747500
696.00	3.85918500	0.03723800
698.00	3.85580300	0.03690700
700.00	3.85239800	0.03647400
702.00	3.84900000	0.03600000
704.00	3.84563900	0.03552600
706.00	3.84233000	0.03504300
708.00	3.83911300	0.03457300
710.00	3.83598600	0.03410600
712.00	3.83290000	0.03360000
714.00	3.82971900	0.03296900
716.00	3.82665500	0.03231800
718.00	3.82388600	0.03171900
720.00	3.82144100	0.03119000
722.00	3.81920000	0.03070000
724.00	3.81710800	0.03025300
726.00	3.81514400	0.02981800
728.00	3.81326600	0.02934900
730.00	3.81145300	0.02885400
732.00	3.80970000	0.02840000
734.00	3.80804000	0.02808200
736.00	3.80636400	0.02781900
738.00	3.80453400	0.02756200
740.00	3.80256100	0.02730900
742.00	3.80060000	0.02710000
744.00	3.79889200	0.02697200
746.00	3.79718400	0.02690800
748.00	3.79527100	0.02693400
750.00	3.79316600	0.02702300
752.00	3.79110000	0.02710000
754.00	3.78936700	0.02706200
756.00	3.78771800	0.02696700
758.00	3.78603600	0.02682700
760.00	3.78428400	0.02664200
762.00	3.78250000	0.02640000
764.00	3.78076200	0.02604900
766.00	3.77890300	0.02567800
768.00	3.77675600	0.02543000
770.00	3.77430800	0.02525100
772.00	3.77170000	0.02490000
774.00	3.76899000	0.02402700
776.00	3.76625500	0.02291800
778.00	3.76360900	0.02159000
780.00	3.76107900	0.02019300
782.00	3.75860000	0.01900000
784.00	3.75606900	0.01845300
786.00	3.75364600	0.01827000
788.00	3.75144800	0.01846200
790.00	3.74951200	0.01891700
792.00	3.74780000	0.01940000
794.00	3.74636800	0.01953800
796.00	3.74509600	0.01958900
798.00	3.74391000	0.01965600
800.00	3.74275700	0.01975200
802.00	3.74160000	0.01980000
804.00	3.74039500	0.01971800
806.00	3.73909800	0.01958100
808.00	3.73757600	0.01940600
810.00	3.73587200	0.01922700
812.00	3.73420000	0.01910000
814.00	3.73294600	0.01915800
816.00	3.73168500	0.01925500
818.00	3.72996600	0.01929100
820.00	3.72790900	0.01925000
822.00	3.72620000	0.01920000
824.00	3.72601100	0.01919400
826.00	3.72609900	0.01919700
828.00	3.72574000	0.01919400
830.00	3.72471200	0.01918700
832.00	3.72330000	0.01920000
834.00	3.72137900	0.01926700
836.00	3.71931800	0.01935400
838.00	3.71732600	0.01944600
840.00	3.71561700	0.01953300
