; From SOPRA S.A. http://www.sopra-sa.com/indices.htm
; Filename    Symbol               Range (nm)     Description
; SIPOLY50
; lambda/nm       n         k
190.75	0.90576400	2.36889800
192.23	0.92075300	2.39584800
193.73	0.93664400	2.42266800
195.25	0.95335800	2.44929100
196.80	0.97062000	2.47491900
198.38	0.98805600	2.49838000
199.98	1.00589700	2.52072700
201.60	1.02410400	2.54201900
203.25	1.04309900	2.56406800
204.93	1.06405600	2.59071800
206.64	1.08466900	2.61593700
208.38	1.10125600	2.63126300
210.14	1.11911800	2.64781100
211.94	1.14163500	2.67252900
213.77	1.16757800	2.70209800
215.63	1.19230900	2.73059500
217.52	1.21523900	2.75840900
219.44	1.24666300	2.79305100
221.40	1.27486100	2.82764600
223.40	1.30932600	2.86325200
225.43	1.34857000	2.89869000
227.50	1.39392600	2.93191600
229.60	1.44238500	2.95564300
231.75	1.49026800	2.96852900
233.93	1.52677200	2.97515100
236.16	1.54948700	2.98418600
238.43	1.56644100	3.00243000
240.75	1.58065000	3.02996800
243.11	1.59546100	3.06535200
245.52	1.61397900	3.10791200
247.97	1.63537800	3.15692400
250.48	1.66185500	3.21115700
253.03	1.69168700	3.27052100
255.64	1.72779000	3.33471100
258.30	1.76943200	3.40480300
261.02	1.81767000	3.48255700
263.80	1.87624900	3.57027100
266.63	1.94895200	3.67013000
269.53	2.04486600	3.77924800
272.49	2.17032800	3.88762200
275.52	2.32670900	3.98285700
278.62	2.56589800	4.08044100
281.78	2.70460600	4.11629200
285.02	2.93086900	4.16142000
288.34	3.22129100	4.15190900
291.73	3.49900000	4.01195000
295.20	3.66852400	3.81508800
298.76	3.75867200	3.64771600
302.40	3.81647500	3.51624700
306.14	3.86053400	3.41428300
309.96	3.90192000	3.33136600
313.89	3.94780100	3.26240500
317.91	3.99668600	3.20356600
322.04	4.05173100	3.15086400
326.28	4.11216100	3.10275400
330.63	4.17658300	3.05785800
335.10	4.24518100	3.01568300
339.69	4.31812200	2.97793700
344.40	4.40151600	2.94399400
349.25	4.50213600	2.91930500
354.24	4.64364700	2.90497500
359.38	4.86946800	2.87355700
364.66	5.16694200	2.70247000
370.11	5.35553200	2.34999400
375.71	5.30651500	2.03651000
381.49	5.24120300	1.72552700
387.45	5.15570500	1.57044900
393.60	5.02532100	1.42821800
399.95	4.95736100	1.32079700
406.51	4.88601200	1.24384600
413.28	4.82464500	1.16217000
420.29	4.77048300	1.09099700
427.54	4.72189600	1.02668400
435.04	4.67492700	0.96451100
442.80	4.63122200	0.90522600
450.86	4.59014300	0.84734700
459.20	4.55124700	0.79092400
467.87	4.51394000	0.73559000
476.87	4.47855800	0.68364400
486.22	4.44423400	0.63584000
495.94	4.41073500	0.59117500
506.06	4.37753800	0.54940800
516.60	4.34416900	0.50949000
527.60	4.31038000	0.47018500
539.07	4.27593000	0.43172500
551.05	4.24235900	0.39519700
563.57	4.20360900	0.35782400
576.68	4.15988800	0.31994000
590.41	4.12489000	0.28923600
604.81	4.09673300	0.26428000
619.93	4.06830000	0.23866400
635.82	4.03984500	0.21300300
652.55	4.00858800	0.18744600
670.19	3.97525700	0.16225700
688.81	3.94290300	0.14038800
708.49	3.91187100	0.12140700
729.32	3.88097500	0.10363900
751.43	3.84956800	0.08710300
774.91	3.82139600	0.07123600
799.90	3.79538900	0.05580000
826.57	3.76559900	0.04293300
855.07	3.73324500	0.03353700
885.61	3.70044600	0.02193400
918.41	3.66946900	0.00793800
953.73	3.64118200	0.00114700
991.88	3.61433800	0.00112400
1033.21	3.59256900	0.00110700
1078.13	3.57449300	0.00109200
1127.14	3.55894100	0.00000000
1180.81	3.54616300	0.00106900
1239.85	3.53049100	0.00105600
1305.11	3.51221400	0.00000000
1377.61	3.49868000	0.00000000
1458.65	3.48979500	0.00000000
1549.81	3.47820500	0.00000000
1653.14	3.46589800	0.00000000
1771.22	3.45474800	0.00000000
1907.46	3.44666400	0.00000000
2066.42	3.44354900	0.00000000
2254.28	3.44853200	0.00000000
2479.70	3.46136000	0.00000000
