; From SOPRA S.A. http://www.sopra-sa.com/indices.htm
; Filename    Symbol               Range (nm)     Description
; SIPORE      Si                  210     1239    Porous Silicon
; lambda/nm       n         k
210.14	1.23450000	0.98720000
211.94	1.24313800	0.99313100
213.77	1.25200000	0.99990000
215.63	1.26123800	1.00744400
217.52	1.27100000	1.01570000
219.44	1.28117500	1.02471900
221.40	1.29270000	1.03410000
223.40	1.30660000	1.04404400
225.43	1.32250000	1.05280000
227.50	1.34152500	1.05901300
229.60	1.36020000	1.06170000
231.75	1.37589400	1.05753100
233.93	1.38720000	1.05220000
236.16	1.39021300	1.05012500
238.43	1.38980000	1.05180000
240.75	1.38932500	1.05985000
243.11	1.38940000	1.07230000
245.52	1.39187500	1.08815000
247.97	1.39640000	1.10710000
250.48	1.40321900	1.12851300
253.03	1.41240000	1.15240000
255.64	1.42394400	1.17820600
258.30	1.43830000	1.20700000
261.02	1.45492500	1.23940000
263.80	1.47680000	1.27620000
266.63	1.50551900	1.31996200
269.53	1.54470000	1.36600000
272.49	1.59948700	1.41183100
275.52	1.66690000	1.45340000
278.62	1.74358200	1.48622500
281.78	1.83580000	1.50910000
285.02	1.95648800	1.52911200
288.34	2.08230000	1.51690000
291.73	2.20058800	1.42757500
295.20	2.29220000	1.31480000
298.76	2.32218100	1.21901300
302.40	2.32530000	1.13500000
306.14	2.32487500	1.07397500
309.96	2.32030000	1.02710000
313.89	2.31916300	0.98994400
317.91	2.32020000	0.96050000
322.04	2.32486200	0.93544400
326.28	2.33260000	0.91430000
330.63	2.34320600	0.89506300
335.10	2.35710000	0.87900000
339.69	2.37245000	0.86601900
344.40	2.39580000	0.85820000
349.25	2.42645000	0.86550600
354.24	2.48430000	0.86420000
359.38	2.61477500	0.84440600
364.66	2.74060000	0.77450000
370.11	2.79395000	0.58380000
375.71	2.79190000	0.37960000
381.49	2.71057500	0.26040000
387.45	2.60500000	0.18190000
393.60	2.52830600	0.13703100
399.95	2.46230000	0.11260000
406.51	2.40744400	0.09235000
413.28	2.36090000	0.07840000
420.29	2.32028100	0.06753800
427.54	2.28470000	0.05950000
435.04	2.25251800	0.05311200
442.80	2.22360000	0.04790000
450.86	2.19733700	0.04315000
459.20	2.17350000	0.03840000
467.87	2.15177500	0.03232500
476.87	2.13180000	0.02680000
486.22	2.11311300	0.02375600
495.94	2.09570000	0.02170000
506.06	2.07941200	0.01975600
516.60	2.06420000	0.01800000
527.60	2.04999400	0.01626900
539.07	2.03670000	0.01440000
551.05	2.02423700	0.01181900
563.57	2.01250000	0.00960000
576.68	2.00133100	0.00909400
590.41	1.99080000	0.00890000
604.81	1.98100600	0.00781300
619.93	1.97170000	0.00660000
635.82	1.96255600	0.00566900
652.55	1.95390000	0.00490000
670.19	1.94602500	0.00434400
688.81	1.93870000	0.00390000
708.49	1.93177500	0.00348800
729.32	1.92530000	0.00310000
751.43	1.91944400	0.00269400
774.91	1.91370000	0.00230000
799.90	1.90753100	0.00192500
826.57	1.90120000	0.00160000
855.07	1.89448100	0.00137500
885.61	1.88830000	0.00120000
918.41	1.88393100	0.00104400
953.73	1.88010000	0.00090000
991.88	1.87580000	0.00073100
1033.21	1.87150000	0.00060000
1078.13	1.86738100	0.00060000
1127.14	1.86330000	0.00060000
1180.81	1.85919400	0.00052500
1239.85	1.85500000	0.00030000
