; From SOPRA S.A. http://www.sopra-sa.com/indices.htm
; Filename    Symbol               Range (nm)     Description
; SF11        SF11                210     1239    Glass SF11
; lambda/nm       n         k
210.14	3.21752600	0.00000000
213.77	3.08620200	0.00000000
217.52	2.96460500	0.00000000
221.40	2.85234000	0.00000000
225.43	2.74899800	0.00000000
229.60	2.65415600	0.00000000
233.93	2.56737800	0.00000000
238.43	2.48821700	0.00000000
243.11	2.41621700	0.00000000
247.97	2.35091700	0.00000000
253.03	2.29185300	0.00000000
258.30	2.23856300	0.00000000
263.80	2.19059100	0.00000000
269.53	2.14749100	0.00000000
275.52	2.10883200	0.00000000
281.78	2.07419900	0.00000000
288.34	2.04319800	0.00000000
295.20	2.01546000	0.00000000
302.40	1.99063700	0.00000000
309.96	1.96841200	0.00000000
317.91	1.94848900	0.00000000
326.28	1.93060400	0.00000000
335.10	1.91451400	0.00000000
344.40	1.90000500	0.00000000
354.24	1.88688400	0.00000000
364.66	1.87498200	0.00000000
375.71	1.86415100	0.00000000
387.45	1.85425900	0.00000000
399.95	1.84519600	0.00000000
413.28	1.83686200	0.00000000
427.54	1.82917600	0.00000000
442.80	1.82206500	0.00000000
459.20	1.81546900	0.00000000
476.87	1.80933600	0.00000000
495.94	1.80362200	0.00000000
516.60	1.79829000	0.00000000
539.07	1.79330900	0.00000000
563.57	1.78865000	0.00000000
590.41	1.78429000	0.00000000
619.93	1.78020700	0.00000000
652.55	1.77638300	0.00000000
688.81	1.77279800	0.00000000
729.32	1.76943600	0.00000000
774.91	1.76627600	0.00000000
826.57	1.76329900	0.00000000
885.61	1.76048300	0.00000000
953.73	1.75779800	0.00000000
1033.21	1.75520900	0.00000000
1127.14	1.75266700	0.00000000
1239.85	1.75010200	0.00000000
