;  Optical constants for cubic Si0.25Ge0.75
; 
;   taken from:
;
;   'Handbook of Optical Constants of Solids II', Ed. by Edward D. Palik,
;   Academic Press, Inc., 1991.
;   
;    Lambda (nm)            n            k
;-----------------------------------------
101.62	0.85000000	0.88000000
103.32	0.85000000	0.90000000
105.07	0.85000000	0.92000000
108.75	0.85000000	0.95000000
112.71	0.84000000	0.99000000
116.96	0.83000000	1.02000000
121.55	0.81000000	1.09000000
123.98	0.80000000	1.13000000
126.51	0.79000000	1.17000000
131.89	0.79000000	1.26000000
137.76	0.80000000	1.36000000
140.89	0.81000000	1.40000000
144.16	0.82000000	1.45000000
147.60	0.82000000	1.50000000
151.19	0.82000000	1.57000000
154.97	0.83000000	1.64000000
156.94	0.83000000	1.68000000
158.95	0.84000000	1.72000000
161.01	0.85000000	1.77000000
163.13	0.87000000	1.81000000
165.31	0.89000000	1.85000000
167.54	0.91000000	1.90000000
169.84	0.93000000	1.95000000
172.19	0.96000000	1.99000000
174.62	0.99000000	2.03000000
177.11	1.03000000	2.08000000
179.68	1.08000000	2.10000000
182.32	1.11000000	2.11000000
185.05	1.12000000	2.12000000
187.85	1.12000000	2.15000000
190.74	1.12000000	2.20000000
193.72	1.13000000	2.26000000
196.79	1.15000000	2.32000000
199.97	1.17000000	2.39000000
203.25	1.20000000	2.48000000
206.63	1.27000000	2.58000000
210.14	1.36000000	2.66000000
213.76	1.48000000	2.70000000
217.51	1.58000000	2.69000000
221.39	1.64000000	2.66000000
225.42	1.65000000	2.66000000
229.59	1.65000000	2.68000000
233.93	1.64000000	2.74000000
238.42	1.66000000	2.83000000
243.10	1.69000000	2.93000000
253.02	1.80000000	3.19000000
258.29	1.89000000	3.34000000
261.01	1.95000000	3.43000000
263.79	2.02000000	3.51000000
266.62	2.09000000	3.61000000
269.52	2.19000000	3.72000000
270.70	2.23000000	3.77000000
271.89	2.28000000	3.82000000
273.08	2.33000000	3.87000000
274.29	2.39000000	3.92000000
275.51	2.47000000	3.97000000
276.74	2.55000000	4.03000000
277.98	2.64000000	4.07000000
279.23	2.74000000	4.12000000
280.50	2.85000000	4.15000000
281.77	2.97000000	4.18000000
283.06	3.11000000	4.18000000
284.36	3.24000000	4.17000000
285.67	3.38000000	4.14000000
286.99	3.52000000	4.09000000
288.33	3.64000000	4.02000000
289.67	3.75000000	3.93000000
291.72	3.87000000	3.79000000
293.79	3.96000000	3.65000000
295.89	4.02000000	3.51000000
298.03	4.05000000	3.38000000
300.19	4.07000000	3.27000000
302.39	4.09000000	3.17000000
306.12	4.09000000	3.02000000
309.95	4.09000000	2.91000000
313.87	4.09000000	2.81000000
317.90	4.09000000	2.72000000
322.03	4.08000000	2.64000000
326.26	4.08000000	2.58000000
330.61	4.08000000	2.53000000
335.08	4.08000000	2.48000000
339.67	4.09000000	2.43000000
344.39	4.10000000	2.39000000
349.24	4.11000000	2.35000000
354.23	4.13000000	2.31000000
359.36	4.14000000	2.27000000
364.65	4.16000000	2.24000000
370.09	4.19000000	2.19000000
375.70	4.21000000	2.14000000
381.48	4.23000000	2.09000000
387.44	4.24000000	2.03000000
393.59	4.23000000	1.98000000
399.94	4.21000000	1.94000000
406.49	4.19000000	1.92000000
413.27	4.17000000	1.91000000
420.27	4.16000000	1.92000000
427.52	4.17000000	1.94000000
435.02	4.19000000	1.97000000
442.79	4.23000000	2.01000000
450.84	4.30000000	2.04000000
459.19	4.38000000	2.07000000
467.85	4.50000000	2.09000000
476.85	4.64000000	2.09000000
480.54	4.72000000	2.08000000
484.30	4.79000000	2.05000000
488.11	4.86000000	2.02000000
491.98	4.92000000	1.97000000
495.92	4.97000000	1.92000000
499.92	5.03000000	1.87000000
503.98	5.08000000	1.83000000
508.11	5.14000000	1.77000000
512.31	5.20000000	1.71000000
516.58	5.28000000	1.64000000
520.92	5.33000000	1.53000000
525.34	5.37000000	1.41000000
529.83	5.37000000	1.30000000
534.40	5.37000000	1.18000000
539.04	5.34000000	1.07000000
543.77	5.30000000	0.98000000
548.58	5.25000000	0.91000000
553.48	5.20000000	0.84000000
563.54	5.11000000	0.74000000
576.65	5.00000000	0.65000000
590.38	4.91000000	0.58000000
604.78	4.82000000	0.53000000
619.90	4.77000000	0.50000000
635.79	4.72000000	0.46000000
652.53	4.67000000	0.41000000
670.16	4.62000000	0.00000000
688.78	4.58000000	0.00000000
729.29	4.49000000	0.00000000
774.88	4.42000000	0.00000000
826.53	4.36000000	0.00000000
885.57	4.30000000	0.00000000
953.69	4.23000000	0.00000000
1033.17	4.17000000	0.00000000
1127.09	4.12000000	0.00000000
1239.80	4.06000000	0.00000000
1377.56	4.02000000	0.00000000
1549.75	3.97000000	0.00000000
1771.14	3.94000000	0.00000000
2066.33	3.90000000	0.00000000
2479.60	3.88000000	0.00000000
