;  Optical constants for cubic Si0.5Ge0.5
; 
;   taken from:
;
;   'Handbook of Optical Constants of Solids II', Ed. by Edward D. Palik,
;   Academic Press, Inc., 1991.
;   
;    Lambda (nm)            n            k
;-----------------------------------------
103.32	0.75000000	0.88000000
106.88	0.75000000	0.92000000
110.70	0.74000000	0.96000000
114.80	0.73000000	1.01000000
119.21	0.72000000	1.07000000
123.98	0.70000000	1.15000000
126.51	0.70000000	1.19000000
129.15	0.70000000	1.23000000
134.76	0.71000000	1.32000000
140.89	0.72000000	1.42000000
147.60	0.74000000	1.53000000
154.97	0.76000000	1.63000000
158.95	0.75000000	1.70000000
163.13	0.75000000	1.78000000
167.54	0.76000000	1.88000000
172.19	0.77000000	2.00000000
177.11	0.82000000	2.13000000
179.68	0.86000000	2.19000000
182.32	0.90000000	2.24000000
185.05	0.95000000	2.29000000
187.85	0.99000000	2.33000000
190.74	1.02000000	2.38000000
193.72	1.05000000	2.42000000
196.79	1.08000000	2.48000000
199.97	1.11000000	2.55000000
203.25	1.16000000	2.62000000
206.63	1.22000000	2.70000000
210.14	1.29000000	2.77000000
213.76	1.37000000	2.83000000
217.51	1.47000000	2.88000000
221.39	1.56000000	2.91000000
225.42	1.64000000	2.91000000
229.59	1.70000000	2.91000000
233.93	1.71000000	2.93000000
238.42	1.72000000	3.00000000
243.10	1.75000000	3.11000000
247.96	1.81000000	3.24000000
253.02	1.90000000	3.36000000
258.29	2.00000000	3.51000000
261.01	2.07000000	3.59000000
263.79	2.14000000	3.67000000
266.62	2.22000000	3.78000000
269.52	2.33000000	3.89000000
270.70	2.38000000	3.93000000
271.89	2.44000000	3.98000000
273.08	2.50000000	4.03000000
274.29	2.57000000	4.07000000
275.51	2.62000000	4.12000000
276.74	2.72000000	4.16000000
277.98	2.81000000	4.20000000
279.23	2.91000000	4.24000000
280.50	3.02000000	4.27000000
281.77	3.14000000	4.29000000
283.06	3.27000000	4.30000000
284.36	3.41000000	4.31000000
285.67	3.56000000	4.27000000
286.99	3.70000000	4.22000000
288.33	3.83000000	4.15000000
289.67	3.94000000	4.05000000
291.03	4.03000000	3.96000000
292.41	4.11000000	3.87000000
293.79	4.17000000	3.78000000
295.19	4.25000000	3.70000000
296.60	4.33000000	3.58000000
298.03	4.34000000	3.41000000
299.47	4.29000000	3.32000000
300.92	4.30000000	3.31000000
302.39	4.33000000	3.24000000
306.12	4.34000000	3.06000000
309.95	4.34000000	2.92000000
313.87	4.32000000	2.81000000
317.90	4.31000000	2.72000000
322.03	4.30000000	2.64000000
326.26	4.30000000	2.57000000
330.61	4.29000000	2.51000000
335.08	4.30000000	2.46000000
339.67	4.30000000	2.41000000
344.39	4.31000000	2.37000000
349.24	4.32000000	2.34000000
354.23	4.34000000	2.30000000
359.36	4.37000000	2.27000000
364.65	4.40000000	2.24000000
370.09	4.44000000	2.20000000
375.70	4.48000000	2.15000000
381.48	4.52000000	2.10000000
387.44	4.55000000	2.05000000
393.59	4.57000000	2.00000000
399.94	4.61000000	1.97000000
402.53	4.62000000	1.96000000
405.16	4.64000000	1.95000000
407.83	4.66000000	1.94000000
410.53	4.69000000	1.94000000
413.27	4.73000000	1.93000000
416.04	4.77000000	1.91000000
418.85	4.80000000	1.89000000
421.70	4.85000000	1.87000000
424.59	4.90000000	1.84000000
427.52	4.95000000	1.80000000
430.49	5.01000000	1.75000000
436.55	5.09000000	1.62000000
439.64	5.13000000	1.55000000
442.79	5.16000000	1.46000000
450.84	5.17000000	1.24000000
459.19	5.10000000	1.04000000
467.85	5.01000000	0.89000000
476.85	4.91000000	0.79000000
486.20	4.82000000	0.72000000
495.92	4.74000000	0.66000000
506.04	4.67000000	0.62000000
516.58	4.61000000	0.58000000
527.58	4.56000000	0.55000000
539.04	4.52000000	0.52000000
551.02	4.47000000	0.49000000
563.54	4.44000000	0.46000000
576.65	4.41000000	0.44000000
590.38	4.38000000	0.41000000
604.78	4.35000000	0.00000000
619.90	4.32000000	0.00000000
635.79	4.29000000	0.00000000
652.53	4.26000000	0.00000000
670.16	4.24000000	0.00000000
688.78	4.21000000	0.00000000
729.29	4.16000000	0.00000000
774.88	4.11000000	0.00000000
826.53	4.06000000	0.00000000
885.57	4.01000000	0.00000000
953.69	3.96000000	0.00000000
1033.17	3.92000000	0.00000000
1127.09	3.88000000	0.00000000
1239.80	3.84000000	0.00000000
1377.56	3.80000000	0.00000000
1549.75	3.77000000	0.00000000
1771.14	3.75000000	0.00000000
2066.33	3.72000000	0.00000000
2479.60	3.70000000	0.00000000
