;UO 
;UO Si25Ge75.ASC: Values of n and k for cubic silicon germanium
;UO alloy (Si0.25Ge0.75) from various references in HOCII (pg. 613).
;UO References are 4, 6, 8, 11.
;UO 
;UO From HANDBOOK OF OPTICAL CONSTANTS IN SOLIDS II edited by Edward D.
;UO Palik. Copyright (c) 1991 by Academic Press, Inc. Reproduced by
;UO permission of the publisher.
;UO ----------------------------------------------------------------- 
;UO        nm        n        k
;UO -----------------------------------------------------------------	
;N  7
;L    Wavelength[nm]        n        k
221.40	1.64000000	1.28000000
225.40	1.65000000	1.33000000
229.60	1.65000000	1.34000000
233.90	1.64000000	1.33000000
238.40	1.66000000	1.33000000
243.10	1.69000000	1.33000000
253.00	1.80000000	1.40000000
258.30	1.89000000	1.45000000
263.80	2.02000000	1.54000000
269.50	2.19000000	1.67000000
270.70	2.23000000	1.71000000
271.90	2.28000000	1.74000000
273.10	2.33000000	1.79000000
274.30	2.39000000	1.84000000
275.50	2.47000000	1.89000000
276.80	2.55000000	1.95000000
278.00	2.64000000	2.02000000
279.20	2.74000000	2.10000000
280.50	2.85000000	2.19000000
281.80	2.97000000	2.30000000
283.10	3.11000000	2.42000000
284.40	3.24000000	2.54000000
285.70	3.38000000	2.68000000
287.00	3.52000000	2.81000000
288.30	3.64000000	2.95000000
289.70	3.75000000	3.08000000
310.00	4.09000000	3.80000000
317.90	4.09000000	3.87000000
326.30	4.08000000	3.92000000
335.10	4.08000000	3.98000000
344.40	4.10000000	4.03000000
354.20	4.13000000	4.09000000
364.70	4.16000000	4.18000000
375.70	4.21000000	4.27000000
387.50	4.24000000	4.34000000
400.00	4.21000000	4.36000000
413.30	4.17000000	4.36000000
427.50	4.17000000	4.40000000
442.80	4.23000000	4.50000000
459.20	4.38000000	4.72000000
476.90	4.64000000	5.07000000
480.60	4.72000000	5.15000000
484.30	4.79000000	5.23000000
488.10	4.86000000	5.30000000
492.00	4.92000000	5.37000000
495.90	4.97000000	5.45000000
499.90	5.03000000	5.53000000
504.00	5.08000000	5.59000000
508.10	5.14000000	5.65000000
512.30	5.20000000	5.70000000
516.60	5.28000000	5.72000000
520.90	5.33000000	5.74000000
525.40	5.37000000	5.72000000
529.90	5.37000000	5.69000000
534.40	5.37000000	5.65000000
539.10	5.34000000	5.60000000
543.80	5.30000000	5.55000000
548.60	5.25000000	5.49000000
553.50	5.20000000	5.44000000
563.60	5.11000000	5.33000000
590.40	4.91000000	5.11000000
619.90	4.77000000	4.93000000
652.60	4.67000000	4.78000000
688.80	4.58000000	4.65000000
729.30	4.49000000	4.54000000
1033.00	4.17000000	0.00691000
1127.00	4.12000000	0.00352000
1239.00	4.06000000	0.00113000
1377.00	4.02000000	0.00007040
