;UO 
;UO Si50Ge50.ASC: Values of n and k for cubic silicon germanium
;UO alloy (Si0.50Ge0.50) from various references in HOCII (pg. 621).
;UO References are 4, 6, 8, 11. 
;UO 
;UO From HANDBOOK OF OPTICAL CONSTANTS IN SOLIDS II edited by Edward D.
;UO Palik. Copyright (c) 1991 by Academic Press, Inc. Reproduced by
;UO permission of the publisher.
;UO ---------------------------------------------------------------- 
;UO        nm        n        k
;UO ----------------------------------------------------------------	
;N  7
;L    Wavelength[nm]        n        k
221.40	1.56000000	1.32000000
225.40	1.64000000	1.37000000
229.60	1.70000000	1.39000000
233.90	1.71000000	1.39000000
238.40	1.72000000	1.40000000
243.10	1.75000000	1.40000000
248.00	1.81000000	1.43000000
253.00	1.90000000	1.47000000
258.30	2.00000000	1.54000000
263.80	2.14000000	1.63000000
269.50	2.33000000	1.77000000
270.70	2.38000000	1.81000000
271.90	2.44000000	1.85000000
273.10	2.50000000	1.89000000
274.30	2.57000000	1.95000000
275.50	2.62000000	2.00000000
276.80	2.72000000	2.06000000
278.00	2.81000000	2.13000000
279.20	2.91000000	2.21000000
280.50	3.02000000	2.30000000
281.80	3.14000000	2.40000000
283.10	3.27000000	2.51000000
284.40	3.41000000	2.63000000
285.70	3.56000000	2.76000000
287.00	3.70000000	2.90000000
288.30	3.83000000	3.02000000
289.70	3.94000000	3.15000000
291.00	4.03000000	3.26000000
292.40	4.11000000	3.36000000
293.80	4.17000000	3.45000000
295.20	4.25000000	3.53000000
296.60	4.33000000	3.59000000
298.00	4.34000000	3.65000000
299.50	4.29000000	3.70000000
300.90	4.30000000	3.74000000
302.40	4.33000000	3.77000000
310.00	4.34000000	3.87000000
317.90	4.31000000	3.94000000
326.30	4.30000000	4.00000000
335.10	4.30000000	4.06000000
344.40	4.31000000	4.12000000
354.20	4.34000000	4.20000000
364.70	4.40000000	4.31000000
375.70	4.48000000	4.43000000
387.50	4.55000000	4.55000000
400.00	4.61000000	4.63000000
402.50	4.62000000	4.64000000
405.20	4.64000000	4.66000000
407.80	4.66000000	4.68000000
410.50	4.69000000	4.71000000
413.30	4.73000000	4.74000000
416.10	4.77000000	4.78000000
418.90	4.80000000	4.82000000
421.70	4.85000000	4.87000000
424.60	4.90000000	4.92000000
427.50	4.95000000	4.98000000
430.50	5.01000000	5.05000000
436.60	5.09000000	5.19000000
439.70	5.13000000	5.27000000
442.80	5.16000000	5.34000000
459.20	5.10000000	5.64000000
476.90	4.91000000	5.55000000
495.90	4.74000000	5.29000000
516.60	4.61000000	5.06000000
539.10	4.52000000	4.85000000
563.60	4.44000000	4.67000000
590.40	4.38000000	4.52000000
619.90	4.32000000	4.40000000
652.60	4.26000000	4.30000000
688.80	4.21000000	4.21000000
729.30	4.16000000	4.13000000
953.70	3.96000000	0.00724000
1033.00	3.92000000	0.00423000
1127.00	3.88000000	0.00188000
1239.00	3.84000000	0.00041400
1377.00	3.80000000	0.00000966
