; Refractive index spectrum for Si by Aspnes
;
; D. E. Aspnes and A. A. Studna. Dielectric functions and optical parameters of Si, Ge, GaP, GaAs, GaSb, InP, InAs, and InSb from 1.5 to 6.0 eV, <a href="http://dx.doi.org/10.1103/PhysRevB.27.985"><i>Phys. Rev. B</i> <b>27</b>, 985-1009 (1983)</a>
;
; Crysal orientation: <111>; Doping: 2.3Ã—10<sup>14</sup> cm<sup>-3</sup>, n; Room temperature
;
; lambda/nm    n     k
206.60 	1.01000000 	2.90900000 
210.10 	1.08300000 	2.98200000 
213.80 	1.13300000 	3.04500000 
217.50 	1.18600000 	3.12000000 
221.40 	1.24700000 	3.20600000 
225.40 	1.34000000 	3.30200000 
229.60 	1.47100000 	3.36600000 
233.90 	1.57900000 	3.35300000 
238.40 	1.58900000 	3.35400000 
243.10 	1.57100000 	3.42900000 
248.00 	1.57000000 	3.56500000 
253.00 	1.59700000 	3.74900000 
258.30 	1.65800000 	3.97900000 
263.80 	1.76400000 	4.27800000 
269.50 	1.98800000 	4.67800000 
275.50 	2.45200000 	5.08200000 
281.80 	3.12000000 	5.34400000 
288.30 	4.08700000 	5.39500000 
295.20 	4.88800000 	4.63900000 
302.40 	5.02000000 	3.97900000 
310.00 	5.01000000 	3.58600000 
317.90 	5.01600000 	3.34600000 
326.30 	5.06500000 	3.18200000 
335.10 	5.15600000 	3.05800000 
344.40 	5.29600000 	2.98700000 
354.20 	5.61000000 	3.01400000 
364.70 	6.52200000 	2.70500000 
375.70 	6.70900000 	1.32000000 
387.50 	6.06200000 	0.63000000 
399.90 	5.57000000 	0.38700000 
413.30 	5.22200000 	0.26900000 
427.50 	4.96100000 	0.20300000 
442.80 	4.75300000 	0.16300000 
459.20 	4.58300000 	0.13000000 
476.90 	4.44200000 	0.09000000 
495.90 	4.32000000 	0.07300000 
516.60 	4.21500000 	0.06000000 
539.10 	4.12300000 	0.04800000 
563.60 	4.04200000 	0.03200000 
590.40 	3.96900000 	0.03000000 
619.90 	3.90600000 	0.02200000 
652.50 	3.84700000 	0.01600000 
688.80 	3.79600000 	0.01300000 
729.30 	3.75200000 	0.01000000 
774.90 	3.71400000 	0.00800000 
826.60 	3.67300000 	0.00500000 
