; Refractive index spectrum for Si by Palik
;
; Handbook of Optical Constants of Solids, Edward D. Palik, ed. Academic Press, Boston, 1985 [<a href="http://books.google.com/books?id=rxuG1kXvSqgC">link</a>]
;
; lambda/nm    n     k
99.19 	0.25500000 	0.87500000 
101.20 	0.25600000 	0.91800000 
103.30 	0.25700000 	0.96300000 
105.50 	0.25900000 	1.01000000 
107.80 	0.26300000 	1.06000000 
110.20 	0.26700000 	1.11000000 
112.70 	0.27200000 	1.16000000 
115.30 	0.27800000 	1.21000000 
118.10 	0.28600000 	1.26000000 
121.00 	0.29500000 	1.32000000 
124.00 	0.30600000 	1.38000000 
127.20 	0.31800000 	1.45000000 
130.50 	0.33200000 	1.51000000 
134.00 	0.34800000 	1.58000000 
137.80 	0.36700000 	1.66000000 
141.70 	0.38900000 	1.73000000 
145.90 	0.41400000 	1.82000000 
150.30 	0.44400000 	1.90000000 
155.00 	0.47800000 	2.00000000 
160.00 	0.51700000 	2.10000000 
165.30 	0.56300000 	2.21000000 
171.00 	0.61800000 	2.32000000 
177.10 	0.68200000 	2.45000000 
183.70 	0.75600000 	2.58000000 
190.70 	0.84700000 	2.73000000 
198.40 	0.96800000 	2.89000000 
206.60 	1.11000000 	3.05000000 
206.60 	1.01000000 	2.90900000 
207.30 	1.03600000 	2.92800000 
208.00 	1.04600000 	2.94400000 
208.70 	1.06600000 	2.93700000 
209.40 	1.07000000 	2.96300000 
210.10 	1.08300000 	2.98200000 
210.90 	1.08800000 	2.98700000 
211.60 	1.10200000 	3.00500000 
212.30 	1.10900000 	3.01500000 
213.00 	1.11900000 	3.02500000 
213.80 	1.24000000 	3.18000000 
213.80 	1.13300000 	3.04500000 
214.50 	1.13900000 	3.06100000 
215.30 	1.15500000 	3.07300000 
216.00 	1.16400000 	3.08600000 
216.80 	1.17500000 	3.10200000 
217.50 	1.18000000 	3.11200000 
218.30 	1.19500000 	3.13500000 
219.10 	1.21100000 	3.15000000 
219.80 	1.22200000 	3.16900000 
220.60 	1.23500000 	3.19000000 
221.40 	1.40000000 	3.33000000 
221.40 	1.24700000 	3.20600000 
222.20 	1.26500000 	3.22800000 
223.00 	1.28000000 	3.24500000 
223.80 	1.29900000 	3.26700000 
224.60 	1.31900000 	3.28500000 
225.40 	1.51000000 	3.40000000 
225.40 	1.34000000 	3.30200000 
226.30 	1.36200000 	3.31900000 
227.10 	1.38900000 	3.33400000 
227.90 	1.41600000 	3.35000000 
228.80 	1.44500000 	3.35900000 
229.60 	1.64000000 	3.44000000 
229.60 	1.47100000 	3.36600000 
230.50 	1.50200000 	3.36800000 
231.30 	1.52600000 	3.36800000 
232.20 	1.54800000 	3.36400000 
233.10 	1.56600000 	3.35800000 
233.90 	1.75000000 	3.42000000 
233.90 	1.57900000 	3.35300000 
234.80 	1.58500000 	3.34600000 
235.70 	1.59000000 	3.34400000 
236.60 	1.59100000 	3.34400000 
237.50 	1.59200000 	3.34700000 
238.40 	1.78000000 	3.36000000 
238.40 	1.58900000 	3.35400000 
239.40 	1.58600000 	3.36300000 
240.30 	1.58200000 	3.37600000 
241.20 	1.57900000 	3.38900000 
242.20 	1.57300000 	3.40800000 
243.10 	1.72000000 	3.42000000 
243.10 	1.57100000 	3.42900000 
244.10 	1.57000000 	3.45100000 
245.00 	1.56900000 	3.47700000 
246.00 	1.56800000 	3.50400000 
247.00 	1.56900000 	3.53300000 
248.00 	1.68000000 	3.58000000 
248.00 	1.57000000 	3.56500000 
249.00 	1.57500000 	3.59800000 
250.00 	1.58000000 	3.63200000 
251.00 	1.58400000 	3.67000000 
252.00 	1.59100000 	3.70900000 
253.00 	1.59700000 	3.74900000 
254.10 	1.60800000 	3.78900000 
255.10 	1.61800000 	3.83500000 
256.20 	1.62900000 	3.88000000 
257.20 	1.64300000 	3.92800000 
258.30 	1.65800000 	3.97900000 
259.40 	1.67300000 	4.03100000 
260.50 	1.69200000 	4.08800000 
261.60 	1.71300000 	4.14900000 
262.70 	1.73700000 	4.21100000 
263.80 	1.76400000 	4.27800000 
264.90 	1.79400000 	4.35000000 
266.10 	1.83100000 	4.42600000 
267.20 	1.87400000 	4.50600000 
268.40 	1.92700000 	4.59000000 
269.50 	1.98800000 	4.67800000 
270.70 	2.05900000 	4.76400000 
271.90 	2.14000000 	4.84900000 
273.10 	2.23400000 	4.93300000 
274.30 	2.33900000 	5.01100000 
275.50 	2.45100000 	5.08200000 
276.80 	2.57200000 	5.14800000 
278.00 	2.70000000 	5.20600000 
279.20 	2.83300000 	5.25700000 
280.50 	2.97400000 	5.30400000 
281.80 	3.12000000 	5.34400000 
283.10 	3.27700000 	5.38100000 
284.40 	3.44400000 	5.41400000 
285.70 	3.63400000 	5.43500000 
287.00 	3.84900000 	5.43900000 
288.30 	4.08600000 	5.39500000 
289.70 	4.31800000 	5.30100000 
291.00 	4.52500000 	5.15800000 
292.40 	4.68600000 	4.98900000 
293.80 	4.80500000 	4.81200000 
295.20 	4.88800000 	4.63900000 
296.60 	4.94100000 	4.48000000 
298.00 	4.97700000 	4.33500000 
299.50 	4.99900000 	4.20400000 
300.90 	5.01200000 	4.08600000 
302.40 	5.02000000 	3.97900000 
303.90 	5.02100000 	3.88500000 
305.40 	5.02000000 	3.79800000 
306.90 	5.01800000 	3.72000000 
308.40 	5.01500000 	3.65000000 
310.00 	5.01000000 	3.58700000 
311.50 	5.00900000 	3.52900000 
313.10 	5.01000000 	3.47700000 
314.70 	5.00900000 	3.42900000 
316.30 	5.01200000 	3.38600000 
317.90 	5.01600000 	3.34600000 
319.50 	5.02100000 	3.31000000 
321.20 	5.02900000 	3.27500000 
322.90 	5.04000000 	3.24200000 
324.60 	5.05200000 	3.21100000 
326.30 	5.06500000 	3.18200000 
328.00 	5.07900000 	3.15400000 
329.70 	5.09500000 	3.12800000 
331.50 	5.11500000 	3.10300000 
333.30 	5.13400000 	3.07900000 
335.10 	5.15600000 	3.05800000 
336.90 	5.17900000 	3.03900000 
338.80 	5.20400000 	3.02100000 
340.60 	5.23100000 	3.00700000 
342.50 	5.26100000 	2.99500000 
344.40 	5.29600000 	2.98700000 
346.30 	5.33600000 	2.98300000 
348.30 	5.38300000 	2.98400000 
350.20 	5.44200000 	2.98900000 
352.20 	5.51500000 	2.99900000 
354.20 	5.61000000 	3.01400000 
356.30 	5.73300000 	3.02600000 
358.30 	5.89400000 	3.02300000 
360.40 	6.08900000 	2.98200000 
362.50 	6.30800000 	2.88100000 
364.70 	6.52200000 	2.70500000 
366.80 	6.69500000 	2.45600000 
369.00 	6.79600000 	2.16900000 
371.20 	6.82900000 	1.87000000 
373.40 	6.79900000 	1.57100000 
375.70 	6.70900000 	1.32100000 
378.00 	6.58500000 	1.11000000 
380.30 	6.45200000 	0.94500000 
382.70 	6.31600000 	0.81500000 
385.00 	6.18500000 	0.71400000 
387.50 	6.06200000 	0.63000000 
389.90 	5.94800000 	0.56100000 
392.40 	5.84200000 	0.50500000 
394.90 	5.74400000 	0.45600000 
397.40 	5.65400000 	0.41600000 
400.00 	5.57000000 	0.38700000 
402.50 	5.49300000 	0.35500000 
405.20 	5.42000000 	0.32900000 
407.80 	5.34900000 	0.31300000 
410.50 	5.28400000 	0.29100000 
413.30 	5.22200000 	0.26900000 
416.10 	5.16400000 	0.25500000 
418.90 	5.10900000 	0.24400000 
421.70 	5.05800000 	0.22800000 
424.60 	5.00900000 	0.21100000 
427.50 	4.96100000 	0.20300000 
430.50 	4.91600000 	0.19400000 
433.50 	4.87200000 	0.18500000 
436.60 	4.83100000 	0.18500000 
439.70 	4.79100000 	0.17000000 
442.80 	4.75300000 	0.16300000 
446.00 	4.71800000 	0.14900000 
449.20 	4.68200000 	0.14900000 
452.50 	4.64800000 	0.13300000 
455.80 	4.61500000 	0.13100000 
459.20 	4.58300000 	0.13000000 
462.60 	4.55300000 	0.13100000 
466.10 	4.52200000 	0.13400000 
469.60 	4.49500000 	0.12000000 
473.20 	4.46600000 	0.12000000 
476.90 	4.44200000 	0.09000000 
480.60 	4.41600000 	0.09400000 
484.30 	4.39100000 	0.08300000 
488.10 	4.36700000 	0.07900000 
492.00 	4.34300000 	0.07700000 
495.90 	4.32000000 	0.07300000 
499.90 	4.29800000 	0.07300000 
504.00 	4.27700000 	0.06600000 
508.10 	4.25500000 	0.07200000 
512.30 	4.23500000 	0.06000000 
516.60 	4.21500000 	0.06000000 
520.90 	4.19600000 	0.05600000 
525.40 	4.17700000 	0.05300000 
529.90 	4.15900000 	0.04300000 
534.40 	4.14000000 	0.04500000 
539.10 	4.12300000 	0.04800000 
543.80 	4.10600000 	0.04400000 
548.60 	4.08900000 	0.04400000 
553.50 	4.07300000 	0.03200000 
558.50 	4.05700000 	0.03800000 
563.60 	4.04200000 	0.03200000 
568.70 	4.02600000 	0.03400000 
574.00 	4.01200000 	0.03000000 
579.40 	3.99700000 	0.02700000 
584.80 	3.98300000 	0.03000000 
590.40 	3.96900000 	0.03000000 
596.10 	3.95600000 	0.02700000 
601.90 	3.94300000 	0.02500000 
607.80 	3.93100000 	0.02500000 
613.80 	3.91800000 	0.02400000 
619.90 	3.90600000 	0.02200000 
626.20 	3.89300000 	0.02200000 
632.60 	3.88200000 	0.01900000 
639.10 	3.87000000 	0.01800000 
645.80 	3.85800000 	0.01700000 
652.60 	3.84700000 	0.01600000 
659.50 	3.83700000 	0.01600000 
666.60 	3.82600000 	0.01500000 
673.80 	3.81500000 	0.01400000 
681.20 	3.80500000 	0.01300000 
688.80 	3.79600000 	0.01300000 
696.50 	3.78700000 	0.01300000 
704.50 	3.77800000 	0.01200000 
712.60 	3.76800000 	0.01100000 
720.80 	3.76100000 	0.01100000 
729.30 	3.75200000 	0.01000000 
738.00 	3.74500000 	0.01000000 
746.90 	3.73600000 	0.00900000 
756.00 	3.72800000 	0.00900000 
765.30 	3.72100000 	0.00800000 
774.90 	3.71400000 	0.00800000 
784.70 	3.70500000 	0.00700000 
794.80 	3.69700000 	0.00700000 
805.10 	3.68800000 	0.00600000 
815.70 	3.68100000 	0.00600000 
826.60 	3.67300000 	0.00500000 
968.60 	NA	0.00064000 
984.00 	NA	0.00051000 
999.90 	NA	0.00040000 
1016.00 	NA	0.00028000 
1033.00 	NA	0.00018000 
1051.00 	NA	0.00012000 
1069.00 	NA	0.00006700 
1088.00 	NA	0.00004200 
1107.00 	NA	0.00002500 
1120.00 	3.53610000 	NA
1127.00 	NA	0.00001300 
1144.00 	3.52950000 	NA
1148.00 	NA	0.00000580 
1170.00 	NA	0.00000150 
1200.00 	3.51930000 	NA
1372.00 	3.50070000 	NA
1400.00 	3.48760000 	NA
1532.00 	3.47840000 	NA
1600.00 	3.47100000 	NA
1696.00 	3.46440000 	NA
1800.00 	3.45780000 	NA
2000.00 	3.44900000 	NA
2437.30 	3.44340000 	NA
2500.00 	3.44240000 	NA
2714.40 	3.43930000 	0.00000000 
