; Refractive index spectrum for Si by Vuye-150C
;
; G. Vuye et al.. Temperature dependence of the dielectric function of silicon using in situ spectroscopic ellipsometry, <a href="http://dx.doi.org/10.1016/0040-6090(93)90082-Z"><i>Thin Solid Films</i> <b>233</b>, 166-170 (1993)</a>
;
; 150 Â°C; Crysal orientation: <111>
;
; lambda/nm    n     k
263.80 	1.94800000 	4.12900000 
265.20 	1.98700000 	4.19500000 
266.60 	2.02400000 	4.27300000 
268.10 	2.07600000 	4.35900000 
269.50 	2.13000000 	4.44300000 
271.00 	2.18600000 	4.52400000 
272.50 	2.26200000 	4.61500000 
274.00 	2.35500000 	4.69400000 
275.50 	2.46300000 	4.78600000 
277.10 	2.54600000 	4.87200000 
278.60 	2.67200000 	4.96700000 
280.20 	2.82200000 	5.00900000 
281.80 	2.97700000 	5.10300000 
283.40 	3.15200000 	5.15100000 
285.00 	3.31600000 	5.19300000 
286.70 	3.49900000 	5.23900000 
288.30 	3.71200000 	5.28200000 
290.00 	3.93900000 	5.25600000 
291.70 	4.18900000 	5.20500000 
293.50 	4.41900000 	5.09200000 
295.20 	4.62500000 	4.93700000 
297.00 	4.79000000 	4.77800000 
298.80 	4.91900000 	4.59400000 
300.60 	4.98200000 	4.40700000 
302.40 	5.04200000 	4.26100000 
304.30 	5.08200000 	4.10800000 
306.10 	5.10600000 	3.97900000 
308.00 	5.13300000 	3.85200000 
310.00 	5.12700000 	3.75200000 
311.90 	5.14100000 	3.66200000 
313.90 	5.13900000 	3.57200000 
315.90 	5.14600000 	3.48900000 
317.90 	5.13800000 	3.42900000 
320.00 	5.15300000 	3.35400000 
322.00 	5.17000000 	3.30200000 
324.10 	5.17400000 	3.25700000 
326.30 	5.18400000 	3.20400000 
328.40 	5.19800000 	3.15600000 
330.60 	5.21800000 	3.12400000 
332.80 	5.24600000 	3.08100000 
335.10 	5.25500000 	3.03500000 
337.40 	5.27000000 	3.00500000 
339.70 	5.29800000 	2.96900000 
342.00 	5.32500000 	2.95000000 
344.40 	5.36100000 	2.90400000 
346.80 	5.38900000 	2.89300000 
349.30 	5.43700000 	2.86800000 
351.70 	5.48800000 	2.85400000 
354.20 	5.56300000 	2.84700000 
356.80 	5.64800000 	2.83300000 
359.40 	5.75100000 	2.84000000 
362.00 	5.88600000 	2.80600000 
364.70 	6.05500000 	2.77000000 
367.40 	6.25200000 	2.66400000 
370.10 	6.45100000 	2.49300000 
372.90 	6.64100000 	2.25900000 
375.70 	6.74100000 	1.95200000 
378.60 	6.75100000 	1.63900000 
381.50 	6.67100000 	1.32900000 
384.40 	6.56100000 	1.07800000 
387.50 	6.41500000 	0.88600000 
390.50 	6.26500000 	0.74300000 
393.60 	6.13200000 	0.60300000 
396.70 	5.99700000 	0.50800000 
399.90 	5.85900000 	0.44500000 
403.20 	5.74300000 	0.37600000 
406.50 	5.63100000 	0.32900000 
409.90 	5.53600000 	0.29300000 
413.30 	5.43900000 	0.26000000 
416.80 	5.35600000 	0.23000000 
420.30 	5.27500000 	0.20500000 
423.90 	5.20200000 	0.17800000 
427.50 	5.13400000 	0.15500000 
431.20 	5.06300000 	0.14700000 
435.00 	5.00300000 	0.13200000 
438.90 	4.94000000 	0.12300000 
442.80 	4.88400000 	0.11200000 
446.80 	4.83400000 	0.09800000 
450.90 	4.78400000 	0.08600000 
455.00 	4.73400000 	0.08100000 
459.20 	4.68800000 	0.07100000 
463.50 	4.64700000 	0.06500000 
467.90 	4.60300000 	0.05900000 
472.30 	4.56300000 	0.05200000 
476.90 	4.52400000 	0.04500000 
481.50 	4.48700000 	0.04100000 
486.20 	4.45200000 	0.03800000 
491.00 	4.41900000 	0.03500000 
495.90 	4.38500000 	0.03200000 
500.90 	4.35600000 	0.02500000 
506.10 	4.32300000 	0.02300000 
511.30 	4.29500000 	0.01800000 
516.60 	4.26800000 	0.01700000 
522.00 	4.24000000 	0.01500000 
527.60 	4.21600000 	0.01100000 
533.30 	4.19300000 	0.01180000 
539.10 	4.17000000 	0.01100000 
545.00 	4.14700000 	0.00800000 
551.00 	4.12600000 	0.00700000 
557.20 	4.10600000 	0.00700000 
563.60 	4.08600000 	0.00500000 
570.00 	4.06700000 	0.00400000 
576.70 	4.04600000 	0.00500000 
583.50 	4.02800000 	0.00500000 
590.40 	4.01000000 	0.00400000 
597.50 	3.99670000 	0.00300000 
604.80 	3.97610000 	0.00400000 
612.30 	3.96100000 	0.00300000 
619.90 	3.94600000 	0.00300000 
627.80 	3.92600000 	0.00300000 
635.80 	3.91000000 	0.00100000 
644.10 	3.89600000 	0.00100000 
652.50 	3.88400000 	0.00100000 
661.20 	3.87000000 	0.00100000 
670.20 	3.85500000 	0.00100000 
679.40 	3.84600000 	0.00100000 
688.80 	3.83600000 	0.00100000 
698.50 	3.82100000 	0.00100000 
708.50 	3.81200000 	0.00400000 
718.70 	3.79830000 	0.00400000 
729.30 	3.78800000 	0.00600000 
740.20 	3.77800000 	0.00100000 
751.40 	3.77000000 	0.00500000 
763.00 	3.75800000 	0.00100000 
774.90 	3.74900000 	0.00100000 
787.20 	3.73800000 	0.00000000 
799.90 	3.72600000 	0.00080000 
813.00 	3.71800000 	0.00000000 
826.60 	3.70900000 	0.00000000 
