; Refractive index spectrum for Si by Vuye-300C
;
; G. Vuye et al.. Temperature dependence of the dielectric function of silicon using in situ spectroscopic ellipsometry, <a href="http://dx.doi.org/10.1016/0040-6090(93)90082-Z"><i>Thin Solid Films</i> <b>233</b>, 166-170 (1993)</a>
;
; 300 Â°C; Crysal orientation: <111>
;
; lambda/um    n     k
263.80 	1.99800000 	4.04400000 
265.20 	2.02300000 	4.11300000 
266.60 	2.06500000 	4.16200000 
268.10 	2.09100000 	4.23600000 
269.50 	2.16400000 	4.30900000 
271.00 	2.20200000 	4.39600000 
272.50 	2.27600000 	4.45200000 
274.00 	2.35400000 	4.54300000 
275.50 	2.44100000 	4.63200000 
277.10 	2.52600000 	4.69200000 
278.60 	2.65000000 	4.78400000 
280.20 	2.76400000 	4.84900000 
281.80 	2.87200000 	4.90800000 
283.40 	3.01100000 	4.98500000 
285.00 	3.16300000 	5.03100000 
286.70 	3.33900000 	5.06500000 
288.30 	3.51700000 	5.11300000 
290.00 	3.71200000 	5.12300000 
291.70 	3.92500000 	5.11300000 
293.50 	4.15300000 	5.07400000 
295.20 	4.34400000 	4.97300000 
297.00 	4.54000000 	4.85100000 
298.80 	4.70400000 	4.72300000 
300.60 	4.83000000 	4.55500000 
302.40 	4.93700000 	4.39300000 
304.30 	4.99900000 	4.23400000 
306.10 	5.03300000 	4.08900000 
308.00 	5.06100000 	3.97500000 
310.00 	5.09700000 	3.83700000 
311.90 	5.10700000 	3.74500000 
313.90 	5.12600000 	3.63400000 
315.90 	5.13700000 	3.55400000 
317.90 	5.13500000 	3.47100000 
320.00 	5.15600000 	3.41300000 
322.00 	5.15600000 	3.34300000 
324.10 	5.15900000 	3.27700000 
326.30 	5.17200000 	3.22100000 
328.40 	5.19700000 	3.17400000 
330.60 	5.20200000 	3.11600000 
332.80 	5.21100000 	3.07400000 
335.10 	5.24100000 	3.03700000 
337.40 	5.25600000 	3.00400000 
339.70 	5.27900000 	2.96800000 
342.00 	5.30100000 	2.92400000 
344.40 	5.33000000 	2.89400000 
346.80 	5.36400000 	2.86500000 
349.30 	5.39600000 	2.83800000 
351.70 	5.44000000 	2.80600000 
354.20 	5.49300000 	2.78000000 
356.80 	5.55000000 	2.75600000 
359.40 	5.61400000 	2.75000000 
362.00 	5.69600000 	2.71900000 
364.70 	5.80800000 	2.68300000 
367.40 	5.93900000 	2.62600000 
370.10 	6.08600000 	2.54400000 
372.90 	6.24000000 	2.41400000 
375.70 	6.38300000 	2.23900000 
378.60 	6.49400000 	2.00200000 
381.50 	6.53800000 	1.73900000 
384.40 	6.51600000 	1.48500000 
387.50 	6.46100000 	1.25600000 
390.50 	6.36300000 	1.04300000 
393.60 	6.23900000 	0.88200000 
396.70 	6.11400000 	0.75500000 
399.90 	5.99000000 	0.64100000 
403.20 	5.87000000 	0.54000000 
406.50 	5.76600000 	0.47700000 
409.90 	5.66100000 	0.41300000 
413.30 	5.55900000 	0.36600000 
416.80 	5.47000000 	0.31900000 
420.30 	5.38500000 	0.29100000 
423.90 	5.30900000 	0.25700000 
427.50 	5.23300000 	0.23600000 
431.20 	5.16200000 	0.21200000 
435.00 	5.09700000 	0.18700000 
438.90 	5.03400000 	0.17100000 
442.80 	4.97500000 	0.15100000 
446.80 	4.91800000 	0.14000000 
450.90 	4.86600000 	0.13500000 
455.00 	4.81400000 	0.11800000 
459.20 	4.76600000 	0.10600000 
463.50 	4.72100000 	0.09400000 
467.90 	4.67700000 	0.08900000 
472.30 	4.63400000 	0.08300000 
476.90 	4.59000000 	0.07400000 
481.50 	4.55500000 	0.06700000 
486.20 	4.51600000 	0.06200000 
491.00 	4.48000000 	0.05600000 
495.90 	4.44700000 	0.04900000 
500.90 	4.41500000 	0.04400000 
506.10 	4.38300000 	0.04200000 
511.30 	4.35200000 	0.03500000 
516.60 	4.32500000 	0.03200000 
522.00 	4.29400000 	0.03000000 
527.60 	4.26600000 	0.02600000 
533.30 	4.24000000 	0.02400000 
539.10 	4.21600000 	0.01800000 
545.00 	4.19400000 	0.01900000 
551.00 	4.17000000 	0.01600000 
557.20 	4.14900000 	0.01600000 
563.60 	4.12900000 	0.01400000 
570.00 	4.10800000 	0.01500000 
576.70 	4.08900000 	0.01000000 
583.50 	4.07000000 	0.01000000 
590.40 	4.05000000 	0.01000000 
597.50 	4.03430000 	0.01100000 
604.80 	4.01650000 	0.00800000 
612.30 	3.99930000 	0.00600000 
619.90 	3.98200000 	0.00600000 
627.80 	3.96640000 	0.00500000 
635.80 	3.95070000 	0.00600000 
644.10 	3.93560000 	0.00500000 
652.50 	3.92300000 	0.00600000 
661.20 	3.90700000 	0.00500000 
670.20 	3.89350000 	0.00300000 
679.40 	3.88060000 	0.00400000 
688.80 	3.87000000 	0.00300000 
698.50 	3.85630000 	0.00100000 
708.50 	3.84490000 	0.00200000 
718.70 	3.83410000 	0.00500000 
729.30 	3.82560000 	0.00500000 
740.20 	3.81410000 	0.00200000 
751.40 	3.80480000 	0.00100000 
763.00 	3.79300000 	0.00000000 
774.90 	3.78400000 	0.00700000 
787.20 	3.77300000 	0.00300000 
799.90 	3.76400000 	0.00100000 
813.00 	3.75300000 	0.00100000 
826.60 	3.74300000 	0.00000000 
