; Refractive index spectrum for Si by Vuye-100C
;
; G. Vuye et al.. Temperature dependence of the dielectric function of silicon using in situ spectroscopic ellipsometry, <a href="http://dx.doi.org/10.1016/0040-6090(93)90082-Z"><i>Thin Solid Films</i> <b>233</b>, 166-170 (1993)</a>
;
; 100 Â°C; Crysal orientation: <111>
;
; lambda/nm    n     k
263.80 	1.91800000 	4.14700000 
265.20 	1.97300000 	4.22600000 
266.60 	2.01700000 	4.30900000 
268.10 	2.05600000 	4.39500000 
269.50 	2.11100000 	4.46900000 
271.00 	2.17300000 	4.57300000 
272.50 	2.26600000 	4.66800000 
274.00 	2.35200000 	4.76800000 
275.50 	2.44900000 	4.85000000 
277.10 	2.57600000 	4.94200000 
278.60 	2.70400000 	5.03000000 
280.20 	2.88000000 	5.09200000 
281.80 	3.02200000 	5.14800000 
283.40 	3.18300000 	5.21500000 
285.00 	3.35900000 	5.26400000 
286.70 	3.57600000 	5.29400000 
288.30 	3.79600000 	5.31300000 
290.00 	4.04800000 	5.28900000 
291.70 	4.30600000 	5.21000000 
293.50 	4.53700000 	5.07000000 
295.20 	4.71900000 	4.88800000 
297.00 	4.88200000 	4.70400000 
298.80 	4.97500000 	4.52600000 
300.60 	5.03500000 	4.35200000 
302.40 	5.07000000 	4.18000000 
304.30 	5.10200000 	4.04000000 
306.10 	5.12100000 	3.92300000 
308.00 	5.12100000 	3.79300000 
310.00 	5.12500000 	3.70100000 
311.90 	5.14700000 	3.62100000 
313.90 	5.14000000 	3.52900000 
315.90 	5.13400000 	3.45600000 
317.90 	5.12500000 	3.38800000 
320.00 	5.14900000 	3.32800000 
322.00 	5.16200000 	3.28700000 
324.10 	5.17300000 	3.23200000 
326.30 	5.18800000 	3.19300000 
328.40 	5.19900000 	3.14800000 
330.60 	5.20800000 	3.10700000 
332.80 	5.22200000 	3.07600000 
335.10 	5.24000000 	3.04200000 
337.40 	5.27000000 	3.01100000 
339.70 	5.30400000 	2.97000000 
342.00 	5.32900000 	2.96100000 
344.40 	5.36800000 	2.94200000 
346.80 	5.40800000 	2.91300000 
349.30 	5.45700000 	2.90000000 
351.70 	5.51000000 	2.89000000 
354.20 	5.60300000 	2.88800000 
356.80 	5.68700000 	2.88800000 
359.40 	5.83500000 	2.88400000 
362.00 	5.99100000 	2.86700000 
364.70 	6.18400000 	2.80100000 
367.40 	6.42700000 	2.66100000 
370.10 	6.63700000 	2.42400000 
372.90 	6.81400000 	2.10700000 
375.70 	6.85200000 	1.75700000 
378.60 	6.80100000 	1.41500000 
381.50 	6.67400000 	1.12800000 
384.40 	6.51400000 	0.90500000 
387.50 	6.36000000 	0.76500000 
390.50 	6.20400000 	0.62500000 
393.60 	6.04600000 	0.53100000 
396.70 	5.91300000 	0.45900000 
399.90 	5.78800000 	0.38100000 
403.20 	5.67600000 	0.32000000 
406.50 	5.57600000 	0.26900000 
409.90 	5.47700000 	0.25400000 
413.30 	5.38300000 	0.22100000 
416.80 	5.30100000 	0.19800000 
420.30 	5.22500000 	0.18000000 
423.90 	5.15600000 	0.16200000 
427.50 	5.08700000 	0.13900000 
431.20 	5.01800000 	0.12700000 
435.00 	4.95700000 	0.11700000 
438.90 	4.90300000 	0.10300000 
442.80 	4.84500000 	0.09700000 
446.80 	4.79200000 	0.09000000 
450.90 	4.74600000 	0.08100000 
455.00 	4.70000000 	0.07000000 
459.20 	4.65400000 	0.06200000 
463.50 	4.61200000 	0.05600000 
467.90 	4.57100000 	0.04800000 
472.30 	4.52900000 	0.04600000 
476.90 	4.49200000 	0.04000000 
481.50 	4.45700000 	0.03500000 
486.20 	4.42200000 	0.03300000 
491.00 	4.38800000 	0.02800000 
495.90 	4.35900000 	0.02400000 
500.90 	4.32600000 	0.02300000 
506.10 	4.29600000 	0.02100000 
511.30 	4.27000000 	0.01500000 
516.60 	4.24100000 	0.01100000 
522.00 	4.21500000 	0.01000000 
527.60 	4.19300000 	0.01000000 
533.30 	4.17000000 	0.00900000 
539.10 	4.14600000 	0.00630000 
545.00 	4.12600000 	0.00700000 
551.00 	4.10300000 	0.00800000 
557.20 	4.08300000 	0.00700000 
563.60 	4.06400000 	0.00600000 
570.00 	4.04500000 	0.00500000 
576.70 	4.02700000 	0.00500000 
583.50 	4.00800000 	0.00400000 
590.40 	3.99200000 	0.00400000 
597.50 	3.97300000 	0.00300000 
604.80 	3.95370000 	0.00400000 
612.30 	3.94000000 	0.00200000 
619.90 	3.92800000 	0.00200000 
627.80 	3.91100000 	0.00200000 
635.80 	3.89600000 	0.00200000 
644.10 	3.88100000 	0.00200000 
652.50 	3.86600000 	0.00200000 
661.20 	3.85500000 	0.00200000 
670.20 	3.84400000 	0.00200000 
679.40 	3.83300000 	0.00200000 
688.80 	3.82200000 	0.00200000 
698.50 	3.80490000 	0.00200000 
708.50 	3.79800000 	0.00300000 
718.70 	3.78380000 	0.00300000 
729.30 	3.77300000 	0.00100000 
740.20 	3.76000000 	0.00100000 
751.40 	3.75300000 	0.00200000 
763.00 	3.74300000 	0.00100000 
774.90 	3.73310000 	0.00100000 
787.20 	3.72300000 	0.00500000 
799.90 	3.71200000 	0.00600000 
813.00 	3.70400000 	0.00200000 
826.60 	3.69510000 	0.00000000 
