;  Optical constants for hexagonal SiC, ordinary ray
; 
;   taken from:
;
;   'Handbook of Optical Constants of Solids II', Ed. by Edward D. Palik,
;   Academic Press, Inc., 1991.
;   
;    Lambda (nm)            n            k
;-----------------------------------------
102.46	0.76900000	1.58000000
107.81	0.84400000	1.71000000
111.69	0.90900000	1.80000000
113.22	0.93700000	1.84000000
114.80	0.96900000	1.88000000
116.41	1.00000000	1.92000000
118.64	1.05000000	1.97000000
120.96	1.11000000	2.03000000
123.36	1.18000000	2.08000000
125.23	1.23000000	2.13000000
127.81	1.33000000	2.19000000
130.51	1.46000000	2.21000000
133.31	1.56000000	2.18000000
137.76	1.60000000	2.15000000
140.89	1.61000000	2.19000000
144.16	1.63000000	2.26000000
147.60	1.66000000	2.39000000
151.19	1.77000000	2.57000000
154.97	1.99000000	2.73000000
158.95	2.27000000	2.82000000
163.13	2.59000000	2.87000000
165.31	2.78000000	2.85000000
168.68	3.04000000	2.74000000
173.40	3.33000000	2.55000000
177.11	3.51000000	2.38000000
182.32	3.69000000	2.17000000
187.85	3.97000000	1.88000000
193.72	4.05000000	1.42000000
199.97	3.96000000	1.06000000
206.63	3.83000000	0.80300000
213.76	3.68000000	0.60900000
221.39	3.54000000	0.46400000
229.59	3.39000000	0.36700000
238.42	3.27000000	0.30400000
247.96	3.16000000	0.25900000
275.51	2.96000000	0.20300000
309.95	2.85000000	0.17400000
317.90	2.92300000	0.00765000
326.26	2.89900000	0.00598000
335.08	2.87700000	0.00493000
344.39	2.85600000	0.00375000
354.23	2.83600000	0.00289000
364.65	2.81700000	0.00204000
375.70	2.79900000	0.00138000
387.44	2.78100000	0.00083900
399.94	2.76500000	0.00019100
413.27	2.75000000	0.00004440
435.78	2.73050000	0.00000000
466.97	2.70740000	0.00000000
495.92	2.68400000	0.00001180
497.91	2.68700000	0.00000000
515.08	2.67890000	0.00000000
546.17	2.66310000	0.00000000
567.93	2.65570000	0.00000000
578.00	2.65110000	0.00000000
588.98	2.64880000	0.00000000
589.54	2.64750000	0.00000000
615.90	2.64110000	0.00000000
619.90	2.63400000	0.00000000
656.33	2.62960000	0.00000000
691.08	2.62430000	0.00000000
826.53	2.59800000	0.00000000
1239.80	2.57300000	0.00000000
2000.00	2.57200000	0.00039800
2222.26	2.56800000	0.00000000
2479.60	2.55800000	0.00000000
