; From SOPRA S.A. http://www.sopra-sa.com/indices.htm
; Filename    Symbol               Range (nm)     Description
; RESIGE0     Si0.89Ge0.11        163     2479    Silicon Germanium alloy (relaxed, 11% Ge)   *
; lambda/nm       n         k
163.14	0.52512000	2.16784000
164.22	0.54384000	2.18328000
165.31	0.56000000	2.20000000
166.42	0.57396000	2.21792000
167.55	0.58608000	2.23696000
168.69	0.59672000	2.25704000
169.84	0.60624000	2.27808000
171.01	0.61500100	2.30000000
172.20	0.62335700	2.32272100
173.41	0.63162500	2.34617600
174.63	0.64027500	2.37025300
175.87	0.64963000	2.39488400
177.12	0.66045100	2.41987200
178.40	0.67395300	2.44488500
179.69	0.68909400	2.47025600
181.00	0.70538000	2.49612100
182.33	0.72238500	2.52273600
183.68	0.73945100	2.55047500
185.05	0.75677900	2.57911700
186.44	0.77424000	2.60865800
187.86	0.79217100	2.63882300
189.29	0.81080600	2.66934600
190.75	0.83031600	2.70019700
192.23	0.85111200	2.73150500
193.73	0.87271200	2.76252900
195.25	0.89495200	2.79312600
196.80	0.91729500	2.82163100
198.38	0.93900600	2.84560100
199.98	0.96051700	2.86723300
201.60	0.98174500	2.88665300
203.25	1.00349800	2.90763200
204.93	1.02807300	2.93817100
206.64	1.05091200	2.96569800
208.38	1.06469000	2.97256900
210.14	1.08000000	2.98200000
211.94	1.10357900	3.00844800
213.77	1.13300000	3.04500000
215.63	1.15895500	3.07912500
217.52	1.18000000	3.11200000
219.44	1.21716100	3.15931200
221.40	1.24700000	3.20600000
223.40	1.28905100	3.25478100
225.43	1.34000000	3.30200000
227.50	1.40261400	3.34357000
229.60	1.47100000	3.36600000
231.75	1.53741300	3.36640100
233.93	1.57900000	3.35300000
236.16	1.59074900	3.34399500
238.43	1.58900000	3.35400000
240.75	1.58002200	3.38321000
243.11	1.57100000	3.42900000
245.52	1.56798300	3.49007700
247.97	1.57000000	3.56500000
250.48	1.58104500	3.65137600
253.03	1.59700000	3.74900000
255.64	1.62388400	3.85761700
258.30	1.65800000	3.97900000
261.02	1.70202700	4.11729500
263.80	1.76400000	4.27800000
266.63	1.85199800	4.46621500
269.53	1.98800000	4.67800000
272.49	2.18651300	4.89223900
275.52	2.45100000	5.08200000
278.62	2.89229400	5.28146800
281.78	3.12000000	5.34400000
285.02	3.53401400	5.42839800
288.34	4.08600000	5.39500000
291.73	4.60816200	5.07838200
295.20	4.88800000	4.63900000
298.76	4.99029400	4.26779700
302.40	5.02000000	3.97900000
306.14	5.01857100	3.75822400
309.96	5.01000000	3.58700000
313.89	5.01027700	3.45261600
317.91	5.01600000	3.34600000
322.04	5.03373300	3.25842300
326.28	5.06488800	3.18200000
330.63	5.10568700	3.11520400
335.10	5.15600000	3.05800000
339.69	5.21689300	3.01388400
344.40	5.29600000	2.98700000
349.25	5.40997900	2.98706200
354.24	5.61000000	3.01400000
359.38	5.98787500	3.00862500
364.66	6.52200000	2.70500000
370.11	6.82068800	2.01987500
375.71	6.61733300	1.44028400
381.49	6.38295000	0.87569800
387.45	6.12619200	0.65531200
393.60	5.78349800	0.47633000
399.95	5.58219100	0.36578500
406.51	5.38400000	0.32100000
413.28	5.21826400	0.26452400
420.29	5.07920000	0.22750500
427.54	4.95987100	0.20292400
435.04	4.85071700	0.18137500
442.80	4.75267000	0.16300200
450.86	4.66378800	0.14450200
459.20	4.58312700	0.12681600
467.87	4.50939000	0.10916100
476.87	4.44168400	0.09340500
486.22	4.37879300	0.08158500
495.94	4.32038600	0.07241500
506.06	4.26577800	0.06586000
516.60	4.21482000	0.06021200
527.60	4.16725400	0.05333800
539.07	4.12272900	0.04648600
551.05	4.08084300	0.04000000
563.57	4.04147700	0.03445800
576.68	4.00445100	0.03099600
590.41	3.96953600	0.02828400
604.81	3.93649200	0.02524400
619.93	3.90517800	0.02226100
635.82	3.87527600	0.01925100
652.55	3.84707600	0.01654600
670.19	3.82080500	0.01456600
688.81	3.79633700	0.01297100
708.49	3.77377900	0.01160100
729.32	3.75266500	0.01034200
751.43	3.73294300	0.00898300
774.91	3.71347800	0.00765600
799.90	3.69275600	0.00638500
826.57	3.67186200	0.00528800
855.07	3.65077900	0.00454900
885.61	3.63129800	0.00398700
918.41	3.61607200	0.00348700
953.73	3.60250000	0.00303300
991.88	3.58873700	0.00251800
1033.21	3.57516600	0.00210100
1078.13	3.56150200	0.00201300
1127.14	3.54789300	0.00192600
1180.81	3.53421500	0.00151200
1239.85	3.52099200	0.00099900
1305.11	3.50880500	0.00045800
1377.61	3.49736100	0.00003100
1458.65	3.48646700	0.00001900
1549.81	3.47641200	0.00001000
1653.14	3.46742200	0.00000400
1771.22	3.45950000	0.00000100
1907.46	3.45270700	0.00000000
2066.42	3.44710000	0.00000000
2254.28	3.44519000	0.00000000
2479.70	3.44275300	0.00000000
