; From SOPRA S.A. http://www.sopra-sa.com/indices.htm
; Filename    Symbol               Range (nm)     Description
; SI85GE15    Si0.85Ge0.15        240      840    Silicon Germanium alloy (85% Si)
; lambda/nm       n         k
240.00	1.64870000	3.40410000
242.00	1.65920000	3.44640000
244.00	1.66370000	3.49120000
246.00	1.67240000	3.54180000
248.00	1.68260000	3.59610000
250.00	1.71230000	3.65720000
252.00	1.74030000	3.72390000
254.00	1.75580000	3.81790000
256.00	1.78720000	3.87910000
258.00	1.82290000	3.96420000
260.00	1.86380000	4.05950000
262.00	1.91830000	4.16370000
264.00	1.96590000	4.25510000
266.00	2.03690000	4.36750000
268.00	2.11890000	4.48680000
270.00	2.21250000	4.60220000
272.00	2.33420000	4.73140000
274.00	2.49550000	4.85560000
276.00	2.65430000	4.96860000
278.00	2.84310000	5.06310000
280.00	3.06610000	5.14920000
282.00	3.30170000	5.21210000
284.00	3.56070000	5.23560000
286.00	3.84000000	5.22080000
288.00	4.16090000	5.14490000
290.00	4.42220000	4.98860000
292.00	4.62150000	4.79370000
294.00	4.75780000	4.58740000
296.00	4.87060000	4.38250000
298.00	4.91660000	4.19760000
300.00	4.94980000	4.03830000
302.00	4.97147500	3.89843800
304.00	4.98010000	3.77740000
306.00	4.98025000	3.67273700
308.00	4.97650000	3.58200000
310.00	4.97502500	3.50245600
312.00	4.97560000	3.43250000
314.00	4.98111200	3.37016900
316.00	4.98840000	3.31380000
318.00	4.99418700	3.26108800
320.00	5.00170000	3.21200000
322.00	5.01426800	3.16571200
324.00	5.02830000	3.12230000
326.00	5.04046200	3.08141900
328.00	5.05330000	3.04350000
330.00	5.06834400	3.00955000
332.00	5.08530000	2.97750000
334.00	5.10523100	2.94468700
336.00	5.12560000	2.91390000
338.00	5.14301900	2.88833700
340.00	5.16110000	2.86410000
342.00	5.18280600	2.83664400
344.00	5.20670000	2.81110000
346.00	5.23159400	2.79295000
348.00	5.25970000	2.77660000
350.00	5.29295000	2.75755000
352.00	5.33100000	2.73800000
354.00	5.37394400	2.71909400
356.00	5.42240000	2.69950000
358.00	5.47756200	2.67862500
360.00	5.53780000	2.65540000
362.00	5.60109900	2.62995000
364.00	5.66980000	2.59810000
366.00	5.74683700	2.55650000
368.00	5.82840000	2.50280000
370.00	5.91309400	2.43283100
372.00	5.99660000	2.34870000
374.00	6.07615100	2.25139900
376.00	6.14570000	2.14010000
378.00	6.19776900	2.01130000
380.00	6.23390000	1.87400000
382.00	6.25205000	1.73420000
384.00	6.25550000	1.59740000
386.00	6.24643700	1.47283700
388.00	6.22610000	1.35530000
390.00	6.19585700	1.24210700
392.00	6.15750000	1.13490000
394.00	6.11288100	1.03387500
396.00	6.06320000	0.94070000
398.00	6.00974400	0.85804400
400.00	5.95410000	0.78310000
402.00	5.89873100	0.71348100
404.00	5.84230000	0.65060000
406.00	5.78363800	0.59546300
408.00	5.72470000	0.54690000
410.00	5.66654300	0.50450000
412.00	5.61070000	0.46700000
414.00	5.55986300	0.43300000
416.00	5.51160000	0.40250000
418.00	5.46476200	0.37515000
420.00	5.41820000	0.35060000
422.00	5.36322700	0.32617700
424.00	5.31294500	0.30472200
426.00	5.26693000	0.28595000
428.00	5.22475700	0.26957100
430.00	5.18600000	0.25530000
432.00	5.15023500	0.24284900
434.00	5.11703800	0.23193100
436.00	5.08598300	0.22225800
438.00	5.05664500	0.21354300
440.00	5.02860000	0.20550000
442.00	4.99993200	0.19644600
444.00	4.97208000	0.18783700
446.00	4.94499200	0.17973500
448.00	4.91861600	0.17220200
450.00	4.89290000	0.16530000
452.00	4.86714800	0.15982200
454.00	4.84211400	0.15491500
456.00	4.81790600	0.15045700
458.00	4.79463100	0.14632600
460.00	4.77240000	0.14240000
462.00	4.75249500	0.13822200
464.00	4.73355800	0.13409100
466.00	4.71540200	0.12996900
468.00	4.69784500	0.12581800
470.00	4.68070000	0.12160000
472.00	4.66300200	0.11678900
474.00	4.64554300	0.11195800
476.00	4.62833300	0.10719400
478.00	4.61138200	0.10257900
480.00	4.59470000	0.09820000
482.00	4.57807400	0.09466200
484.00	4.56179500	0.09139900
486.00	4.54592900	0.08836500
488.00	4.53054100	0.08551400
490.00	4.51570000	0.08280000
492.00	4.50217800	0.08017500
494.00	4.48915700	0.07759800
496.00	4.47652700	0.07502200
498.00	4.46417900	0.07240500
500.00	4.45200000	0.06970000
502.00	4.43933800	0.06633800
504.00	4.42676100	0.06293100
506.00	4.41429500	0.05956500
508.00	4.40196600	0.05632600
510.00	4.38980000	0.05330000
512.00	4.37794600	0.05106700
514.00	4.36627500	0.04909800
516.00	4.35478100	0.04735400
518.00	4.34345800	0.04580100
520.00	4.33230000	0.04440000
522.00	4.32096000	0.04253000
524.00	4.30986000	0.04088500
526.00	4.29908000	0.03957500
528.00	4.28870000	0.03871000
530.00	4.27880000	0.03840000
532.00	4.26993400	0.04053000
534.00	4.26158900	0.04298900
536.00	4.25372700	0.04544300
538.00	4.24631000	0.04755800
540.00	4.23930000	0.04900000
542.00	4.23307000	0.04706900
544.00	4.22706700	0.04438600
546.00	4.22114800	0.04121000
548.00	4.21517400	0.03779500
550.00	4.20900000	0.03440000
552.00	4.20148500	0.03228600
554.00	4.19373800	0.03045300
556.00	4.18587000	0.02890700
558.00	4.17798700	0.02765400
560.00	4.17020000	0.02670000
562.00	4.16328900	0.02641800
564.00	4.15652200	0.02635300
566.00	4.14984100	0.02641900
568.00	4.14318700	0.02653000
570.00	4.13650000	0.02660000
572.00	4.12903600	0.02607100
574.00	4.12159200	0.02544600
576.00	4.11428000	0.02475400
578.00	4.10721200	0.02402900
580.00	4.10050000	0.02330000
582.00	4.09528600	0.02274000
584.00	4.09039500	0.02220400
586.00	4.08568100	0.02168800
588.00	4.08099700	0.02118800
590.00	4.07620000	0.02070000
592.00	4.07014100	0.02009200
594.00	4.06392700	0.01952000
596.00	4.05766200	0.01901200
598.00	4.05145200	0.01859600
600.00	4.04540000	0.01830000
602.00	4.04000300	0.01863200
604.00	4.03487800	0.01902000
606.00	4.03003100	0.01937200
608.00	4.02546900	0.01959600
610.00	4.02120000	0.01960000
612.00	4.01784200	0.01835800
614.00	4.01463900	0.01694500
616.00	4.01144500	0.01550300
618.00	4.00811300	0.01417400
620.00	4.00450000	0.01310000
622.00	3.99892200	0.01362500
624.00	3.99315500	0.01438600
626.00	3.98743700	0.01522600
628.00	3.98200500	0.01598300
630.00	3.97710000	0.01650000
632.00	3.97514400	0.01562500
634.00	3.97364400	0.01443800
636.00	3.97229200	0.01303000
638.00	3.97078000	0.01148700
640.00	3.96880000	0.00990000
642.00	3.96396100	0.00859700
644.00	3.95855800	0.00736600
646.00	3.95280600	0.00623800
648.00	3.94691500	0.00523900
650.00	3.94110000	0.00440000
652.00	3.93653900	0.00399500
654.00	3.93223800	0.00374600
656.00	3.92816600	0.00361800
658.00	3.92429700	0.00358100
660.00	3.92060000	0.00360000
662.00	3.91691900	0.00342600
664.00	3.91338600	0.00329700
666.00	3.91000200	0.00323500
668.00	3.90677300	0.00326200
670.00	3.90370000	0.00340000
672.00	3.90099200	0.00415900
674.00	3.89839600	0.00495000
676.00	3.89586400	0.00567000
678.00	3.89334800	0.00622100
680.00	3.89080000	0.00650000
682.00	3.88804700	0.00541200
684.00	3.88519800	0.00410000
686.00	3.88223400	0.00271200
688.00	3.87914100	0.00139600
690.00	3.87590000	0.00030000
692.00	3.87203800	0.00037200
694.00	3.86810900	0.00076000
696.00	3.86421100	0.00141200
698.00	3.86044200	0.00227600
700.00	3.85690000	0.00330000
702.00	3.85444000	0.00437400
704.00	3.85221200	0.00551900
706.00	3.85012400	0.00669700
708.00	3.84808400	0.00787000
710.00	3.84600000	0.00900000
712.00	3.84287100	0.01005700
714.00	3.83974200	0.01099400
716.00	3.83674600	0.01177400
718.00	3.83402100	0.01235500
720.00	3.83170000	0.01270000
722.00	3.83134000	0.01228900
724.00	3.83130000	0.01168200
726.00	3.83136000	0.01096200
728.00	3.83130000	0.01020700
730.00	3.83090000	0.00950000
732.00	3.82854500	0.00934300
734.00	3.82575800	0.00929000
736.00	3.82267000	0.00931400
738.00	3.81940700	0.00939300
740.00	3.81610000	0.00950000
742.00	3.81337000	0.00947700
744.00	3.81072900	0.00946600
746.00	3.80818300	0.00947800
748.00	3.80573800	0.00951900
750.00	3.80340000	0.00960000
752.00	3.80125700	0.00991400
754.00	3.79921000	0.01023900
756.00	3.79724600	0.01053700
758.00	3.79534700	0.01077000
760.00	3.79350000	0.01090000
762.00	3.79155400	0.01050000
764.00	3.78966300	0.01002000
766.00	3.78784500	0.00952000
768.00	3.78611700	0.00906000
770.00	3.78450000	0.00870000
772.00	3.78323100	0.00899900
774.00	3.78205300	0.00939400
776.00	3.78093100	0.00981800
778.00	3.77982500	0.01020900
780.00	3.77870000	0.01050000
782.00	3.77732700	0.01010900
784.00	3.77591000	0.00961800
786.00	3.77445900	0.00909400
788.00	3.77298500	0.00859900
790.00	3.77150000	0.00820000
792.00	3.77000300	0.00847600
794.00	3.76851900	0.00884800
796.00	3.76706500	0.00925200
798.00	3.76565400	0.00962400
800.00	3.76430000	0.00990000
802.00	3.76313400	0.00950400
804.00	3.76202500	0.00901200
806.00	3.76095900	0.00848800
808.00	3.75992200	0.00799600
810.00	3.75890000	0.00760000
812.00	3.75770500	0.00787900
814.00	3.75653800	0.00825400
816.00	3.75543000	0.00865800
818.00	3.75440700	0.00902900
820.00	3.75350000	0.00930000
822.00	3.75297000	0.00902000
824.00	3.75255500	0.00860800
826.00	3.75222500	0.00809600
828.00	3.75195000	0.00751600
830.00	3.75170000	0.00690000
832.00	3.75144600	0.00628000
834.00	3.75115900	0.00568800
836.00	3.75080900	0.00515600
838.00	3.75036500	0.00471600
840.00	3.74980000	0.00440000
