; From SOPRA S.A. http://www.sopra-sa.com/indices.htm
; Filename    Symbol               Range (nm)     Description
; SI11GE89    Si0.11Ge0.89        240      840    Silicon Germanium alloy (11% Si)
; lambda/nm       n         k
240.00	1.57050000	3.17740000
242.00	1.56380000	3.21640000
244.00	1.57910000	3.26500000
246.00	1.60080000	3.31250000
248.00	1.61310000	3.36760000
250.00	1.65170000	3.42670000
252.00	1.67210000	3.48360000
254.00	1.70540000	3.54630000
256.00	1.73140000	3.61010000
258.00	1.76580000	3.67890000
260.00	1.80900000	3.74970000
262.00	1.84610000	3.82160000
264.00	1.89590000	3.89500000
266.00	1.94810000	3.97890000
268.00	2.01520000	4.06720000
270.00	2.08520000	4.15610000
272.00	2.16980000	4.25800000
274.00	2.27950000	4.35590000
276.00	2.39360000	4.46300000
278.00	2.53670000	4.56670000
280.00	2.73870000	4.65850000
282.00	2.96430000	4.72300000
284.00	3.21150000	4.72330000
286.00	3.45250000	4.67430000
288.00	3.69150000	4.56970000
290.00	3.86590000	4.43370000
292.00	3.99370000	4.28110000
294.00	4.08510000	4.13300000
296.00	4.16500000	3.98820000
298.00	4.20130000	3.85830000
300.00	4.23330000	3.73910000
302.00	4.26108700	3.63240700
304.00	4.27410000	3.53780000
306.00	4.27736200	3.45389400
308.00	4.27590000	3.37930000
310.00	4.27718700	3.31278100
312.00	4.27890000	3.25250000
314.00	4.28141900	3.19549400
316.00	4.28410000	3.14390000
318.00	4.28607500	3.10062500
320.00	4.28840000	3.06040000
322.00	4.29268700	3.01745600
324.00	4.29640000	2.97620000
326.00	4.29613700	2.93964400
328.00	4.29610000	2.90620000
330.00	4.30040600	2.87580000
332.00	4.30590000	2.84690000
334.00	4.31098100	2.81718700
336.00	4.31510000	2.78890000
338.00	4.31605600	2.76425600
340.00	4.31720000	2.74100000
342.00	4.32216200	2.71704400
344.00	4.32790000	2.69410000
346.00	4.33166300	2.67380600
348.00	4.33620000	2.65430000
350.00	4.34423700	2.63397500
352.00	4.35310000	2.61370000
354.00	4.36061900	2.59360000
356.00	4.36800000	2.57430000
358.00	4.37570000	2.55694400
360.00	4.38380000	2.54010000
362.00	4.39267500	2.52258200
364.00	4.40190000	2.50480000
366.00	4.41085600	2.48730600
368.00	4.42050000	2.46850000
370.00	4.43257500	2.44607500
372.00	4.44410000	2.42270000
374.00	4.45214400	2.40042500
376.00	4.45830000	2.37880000
378.00	4.46267500	2.35894400
380.00	4.46680000	2.33820000
382.00	4.47295000	2.31303800
384.00	4.47900000	2.28720000
386.00	4.48363700	2.26387500
388.00	4.48670000	2.24120000
390.00	4.48726900	2.21829400
392.00	4.48630000	2.19540000
394.00	4.48485000	2.17177500
396.00	4.48170000	2.14950000
398.00	4.47559400	2.13105000
400.00	4.46770000	2.11450000
402.00	4.45819400	2.09822500
404.00	4.44880000	2.08380000
406.00	4.44186300	2.07266900
408.00	4.43570000	2.06360000
410.00	4.42932500	2.05583100
412.00	4.42300000	2.04940000
414.00	4.41637500	2.04381300
416.00	4.41030000	2.03990000
418.00	4.40532500	2.03816200
420.00	4.40200000	2.03910000
422.00	4.39765100	2.04281400
424.00	4.39486100	2.04650300
426.00	4.39356600	2.05018500
428.00	4.39370100	2.05387800
430.00	4.39520000	2.05760000
432.00	4.39799900	2.06137000
434.00	4.40203300	2.06520700
436.00	4.40723800	2.06912900
438.00	4.41354900	2.07315400
440.00	4.42090000	2.07730000
442.00	4.42923100	2.08171500
444.00	4.43847100	2.08625500
446.00	4.44855700	2.09090900
448.00	4.45942200	2.09566200
450.00	4.47100000	2.10050000
452.00	4.48256100	2.10544900
454.00	4.49487100	2.11044600
456.00	4.50803000	2.11547000
458.00	4.52213900	2.12049500
460.00	4.53730000	2.12550000
462.00	4.55423400	2.13052500
464.00	4.57226500	2.13546600
466.00	4.59133900	2.14028500
468.00	4.61140300	2.14494300
470.00	4.63240000	2.14940000
472.00	4.65364400	2.15389800
474.00	4.67587200	2.15804700
476.00	4.69918800	2.16173700
478.00	4.72369600	2.16485800
480.00	4.74950000	2.16730000
482.00	4.77719300	2.16973800
484.00	4.80626900	2.17108300
486.00	4.83670700	2.17102900
488.00	4.86849000	2.16927000
490.00	4.90160000	2.16550000
492.00	4.93746400	2.15840600
494.00	4.97425600	2.14894300
496.00	5.01159600	2.13705700
498.00	5.04910400	2.12269400
500.00	5.08640000	2.10580000
502.00	5.12318000	2.08467500
504.00	5.15897100	2.06132300
506.00	5.19336900	2.03610500
508.00	5.22598000	2.00937700
510.00	5.25640000	1.98150000
512.00	5.28102700	1.95312100
514.00	5.30346700	1.92423700
516.00	5.32412500	1.89513100
518.00	5.34340200	1.86609000
520.00	5.36170000	1.83740000
522.00	5.37940700	1.81166800
524.00	5.39694300	1.78627800
526.00	5.41471700	1.76093300
528.00	5.43313400	1.73533900
530.00	5.45260000	1.70920000
532.00	5.47697500	1.68306900
534.00	5.50234900	1.65559100
536.00	5.52826600	1.62625700
538.00	5.55426800	1.59456400
540.00	5.57990000	1.56000000
542.00	5.60564000	1.51856700
544.00	5.62986200	1.47412300
546.00	5.65187300	1.42703700
548.00	5.67098300	1.37767500
550.00	5.68650000	1.32640000
552.00	5.69436900	1.27199300
554.00	5.69810500	1.21680400
556.00	5.69785500	1.16160000
558.00	5.69377000	1.10714300
560.00	5.68600000	1.05420000
562.00	5.67311000	1.00651500
564.00	5.65722800	0.96112300
566.00	5.63890300	0.91804500
568.00	5.61867800	0.87729700
570.00	5.59710000	0.83890000
572.00	5.57627200	0.80328600
574.00	5.55479200	0.76995500
576.00	5.53281600	0.73882100
578.00	5.51049900	0.70979700
580.00	5.48800000	0.68280000
582.00	5.46547800	0.65807800
584.00	5.44308300	0.63512700
586.00	5.42096900	0.61377600
588.00	5.39929000	0.59385700
590.00	5.37820000	0.57520000
592.00	5.35893000	0.55720900
594.00	5.34028900	0.54024700
596.00	5.32216300	0.52425000
598.00	5.30443900	0.50915500
600.00	5.28700000	0.49490000
602.00	5.26896600	0.48132200
604.00	5.25118200	0.46848100
606.00	5.23372300	0.45633900
608.00	5.21667100	0.44485900
610.00	5.20010000	0.43400000
612.00	5.18482900	0.42386700
614.00	5.17001100	0.41424300
616.00	5.15553800	0.40505700
618.00	5.14130400	0.39623400
620.00	5.12720000	0.38770000
622.00	5.11230800	0.37888300
624.00	5.09753600	0.37033400
626.00	5.08298000	0.36210200
628.00	5.06873600	0.35424100
630.00	5.05490000	0.34680000
632.00	5.04197400	0.34036900
634.00	5.02954700	0.33432600
636.00	5.01761300	0.32859000
638.00	5.00616600	0.32307500
640.00	4.99520000	0.31770000
642.00	4.98501800	0.31196200
644.00	4.97522900	0.30630100
646.00	4.96575100	0.30073900
648.00	4.95650200	0.29529800
650.00	4.94740000	0.29000000
652.00	4.93801000	0.28500600
654.00	4.92868900	0.28016300
656.00	4.91944300	0.27545700
658.00	4.91027800	0.27087400
660.00	4.90120000	0.26640000
662.00	4.89242200	0.26184000
664.00	4.88368900	0.25740800
666.00	4.87495500	0.25313600
668.00	4.86617400	0.24905600
670.00	4.85730000	0.24520000
672.00	4.84763600	0.24195800
674.00	4.83794800	0.23891500
676.00	4.82835200	0.23601300
678.00	4.81896400	0.23319400
680.00	4.80990000	0.23040000
682.00	4.80196000	0.22720600
684.00	4.79440600	0.22401500
686.00	4.78718100	0.22086100
688.00	4.78023100	0.21777800
690.00	4.77350000	0.21480000
692.00	4.76689100	0.21228200
694.00	4.76040200	0.20985900
696.00	4.75398600	0.20748500
698.00	4.74760100	0.20511400
700.00	4.74120000	0.20270000
702.00	4.73458900	0.19972800
704.00	4.72791000	0.19674000
706.00	4.72115800	0.19380800
708.00	4.71432300	0.19100400
710.00	4.70740000	0.18840000
712.00	4.69990100	0.18674600
714.00	4.69241800	0.18526700
716.00	4.68506500	0.18386500
718.00	4.67795500	0.18244200
720.00	4.67120000	0.18090000
722.00	4.66580200	0.17831700
724.00	4.66076300	0.17562700
726.00	4.65597200	0.17293800
728.00	4.65132100	0.17035900
730.00	4.64670000	0.16800000
732.00	4.64140700	0.16680700
734.00	4.63607100	0.16584200
736.00	4.63073300	0.16500200
738.00	4.62543000	0.16418900
740.00	4.62020000	0.16330000
742.00	4.61511800	0.16173000
744.00	4.61017700	0.16000900
746.00	4.60540700	0.15816300
748.00	4.60083800	0.15621800
750.00	4.59650000	0.15420000
752.00	4.59302000	0.15197400
754.00	4.58968000	0.14976500
756.00	4.58636000	0.14763900
758.00	4.58294000	0.14566200
760.00	4.57930000	0.14390000
762.00	4.57452300	0.14304800
764.00	4.56948600	0.14238400
766.00	4.56426600	0.14181600
768.00	4.55894500	0.14125200
770.00	4.55360000	0.14060000
772.00	4.54831700	0.13925300
774.00	4.54316900	0.13776200
776.00	4.53823100	0.13616600
778.00	4.53358300	0.13449900
780.00	4.52930000	0.13280000
782.00	4.52640900	0.13120100
784.00	4.52380300	0.12961800
786.00	4.52132200	0.12806600
788.00	4.51880700	0.12655500
790.00	4.51610000	0.12510000
792.00	4.51146700	0.12391800
794.00	4.50671500	0.12276500
796.00	4.50208100	0.12160300
798.00	4.49779800	0.12039400
800.00	4.49410000	0.11910000
802.00	4.49360700	0.11708000
804.00	4.49357100	0.11504800
806.00	4.49363300	0.11311600
808.00	4.49343000	0.11139600
810.00	4.49260000	0.11000000
812.00	4.48794700	0.11010900
814.00	4.48265400	0.11049800
816.00	4.47706700	0.11101400
818.00	4.47153300	0.11149900
820.00	4.46640000	0.11180000
822.00	4.46483800	0.11074600
824.00	4.46366500	0.10945100
826.00	4.46252300	0.10801300
828.00	4.46105400	0.10653000
830.00	4.45890000	0.10510000
832.00	4.45570100	0.10382200
834.00	4.45110000	0.10279500
836.00	4.44473900	0.10211700
838.00	4.43625800	0.10188600
840.00	4.42530000	0.10220000
