; From SOPRA S.A. http://www.sopra-sa.com/indices.htm
; Filename    Symbol               Range (nm)     Description
; SI98GE02    Si0.98Ge0.02        240      840    Silicon Germanium alloy (98% Si)
; lambda/nm       n         k
240.00	1.61970000	3.40380000
242.00	1.61870000	3.43440000
244.00	1.64080000	3.46420000
246.00	1.63480000	3.53840000
248.00	1.64320000	3.59620000
250.00	1.66780000	3.65030000
252.00	1.68660000	3.72690000
254.00	1.71130000	3.81570000
256.00	1.72320000	3.88360000
258.00	1.75830000	3.97970000
260.00	1.79640000	4.07750000
262.00	1.84300000	4.18730000
264.00	1.88580000	4.29970000
266.00	1.97050000	4.42300000
268.00	2.06030000	4.55140000
270.00	2.16460000	4.67570000
272.00	2.29880000	4.80820000
274.00	2.46990000	4.93500000
276.00	2.65180000	5.04000000
278.00	2.84860000	5.12570000
280.00	3.07560000	5.19580000
282.00	3.30790000	5.23420000
284.00	3.55930000	5.25100000
286.00	3.81540000	5.23440000
288.00	4.10560000	5.17730000
290.00	4.36170000	5.05880000
292.00	4.59340000	4.89020000
294.00	4.75440000	4.69430000
296.00	4.87980000	4.48630000
298.00	4.94950000	4.29480000
300.00	4.98700000	4.12680000
302.00	5.01789300	3.97493800
304.00	5.03200000	3.84650000
306.00	5.03470600	3.73761200
308.00	5.03140000	3.64440000
310.00	5.02919400	3.56186900
312.00	5.02830000	3.48950000
314.00	5.03203700	3.42565000
316.00	5.03820000	3.36870000
318.00	5.04510000	3.31626900
320.00	5.05450000	3.26900000
322.00	5.06836900	3.22756900
324.00	5.08440000	3.18950000
326.00	5.10086900	3.15177500
328.00	5.11800000	3.11670000
330.00	5.13441900	3.08629300
332.00	5.15320000	3.05840000
334.00	5.17845600	3.03012500
336.00	5.20570000	3.00570000
338.00	5.22933800	2.99042500
340.00	5.25680000	2.97820000
342.00	5.29520600	2.96390000
344.00	5.33990000	2.94990000
346.00	5.38700000	2.93825600
348.00	5.44130000	2.92480000
350.00	5.50733700	2.90572500
352.00	5.58200000	2.88200000
354.00	5.66445000	2.85311200
356.00	5.75240000	2.81970000
358.00	5.84121200	2.78457500
360.00	5.93710000	2.74070000
362.00	6.04645600	2.68406900
364.00	6.16410000	2.60840000
366.00	6.29086300	2.50686200
368.00	6.41510000	2.37710000
370.00	6.53053100	2.21090000
372.00	6.62190000	2.01900000
374.00	6.67083100	1.80383000
376.00	6.68040000	1.58210000
378.00	6.64233100	1.36879300
380.00	6.57230000	1.17150000
382.00	6.47888800	1.00395000
384.00	6.37510000	0.86270000
386.00	6.27923700	0.75184400
388.00	6.18400000	0.66250000
390.00	6.08625700	0.58769400
392.00	5.99180000	0.52580000
394.00	5.90672400	0.47315600
396.00	5.82700000	0.42890000
398.00	5.75035600	0.39126300
400.00	5.67760000	0.35930000
402.00	5.60875600	0.33175600
404.00	5.54390000	0.30780000
406.00	5.48316300	0.28616300
408.00	5.42640000	0.26690000
410.00	5.37363700	0.24972500
412.00	5.32450000	0.23440000
414.00	5.27915600	0.22062500
416.00	5.23600000	0.20830000
418.00	5.19386900	0.19727500
420.00	5.15160000	0.18740000
422.00	5.10710100	0.17813000
424.00	5.06650100	0.16947900
426.00	5.02939900	0.16141300
428.00	4.99539900	0.15389800
430.00	4.96410000	0.14690000
432.00	4.93510500	0.14038600
434.00	4.90801700	0.13432300
436.00	4.88243500	0.12867700
438.00	4.85796300	0.12341400
440.00	4.83420000	0.11850000
442.00	4.80874000	0.11384800
444.00	4.78369600	0.10949200
446.00	4.75917200	0.10541200
448.00	4.73527200	0.10158800
450.00	4.71210000	0.09800000
452.00	4.69044400	0.09463800
454.00	4.66955400	0.09146900
456.00	4.64936200	0.08847100
458.00	4.62979900	0.08562200
460.00	4.61080000	0.08290000
462.00	4.59212100	0.08008000
464.00	4.57391500	0.07739200
466.00	4.55615800	0.07486400
468.00	4.53882700	0.07252400
470.00	4.52190000	0.07040000
472.00	4.50531800	0.06883700
474.00	4.48910100	0.06746600
476.00	4.47323500	0.06623800
478.00	4.45770600	0.06509900
480.00	4.44250000	0.06400000
482.00	4.42721100	0.06271600
484.00	4.41231400	0.06141200
486.00	4.39789100	0.06008000
488.00	4.38402500	0.05871200
490.00	4.37080000	0.05730000
492.00	4.35924600	0.05574600
494.00	4.34826300	0.05415500
496.00	4.33769700	0.05254100
498.00	4.32739400	0.05091800
500.00	4.31720000	0.04930000
502.00	4.30610500	0.04764800
504.00	4.29502600	0.04604400
506.00	4.28402600	0.04451600
508.00	4.27316300	0.04309200
510.00	4.26250000	0.04180000
512.00	4.25237500	0.04097200
514.00	4.24250100	0.04025600
516.00	4.23287100	0.03960400
518.00	4.22347300	0.03896800
520.00	4.21430000	0.03830000
522.00	4.20544900	0.03718700
524.00	4.19677800	0.03603800
526.00	4.18825300	0.03489400
528.00	4.17983900	0.03380100
530.00	4.17150000	0.03280000
532.00	4.16285600	0.03220700
534.00	4.15430200	0.03172600
536.00	4.14589100	0.03133000
538.00	4.13767300	0.03099700
540.00	4.12970000	0.03070000
542.00	4.12241100	0.03026500
544.00	4.11537100	0.02985400
546.00	4.10853700	0.02948200
548.00	4.10186200	0.02915900
550.00	4.09530000	0.02890000
552.00	4.08843900	0.02898900
554.00	4.08169100	0.02909800
556.00	4.07510500	0.02917400
558.00	4.06872600	0.02915900
560.00	4.06260000	0.02900000
562.00	4.05755500	0.02819300
564.00	4.05266100	0.02724200
566.00	4.04777100	0.02620600
568.00	4.04273300	0.02513900
570.00	4.03740000	0.02410000
572.00	4.03022100	0.02337200
574.00	4.02280000	0.02272800
576.00	4.01533900	0.02216800
578.00	4.00803800	0.02169200
580.00	4.00110000	0.02130000
582.00	3.99597700	0.02102700
584.00	3.99130600	0.02083000
586.00	3.98697800	0.02069800
588.00	3.98287900	0.02062500
590.00	3.97890000	0.02060000
592.00	3.97447400	0.02075000
594.00	3.97005900	0.02089700
596.00	3.96565700	0.02099900
598.00	3.96127000	0.02101400
600.00	3.95690000	0.02090000
602.00	3.95245800	0.02019400
604.00	3.94806100	0.01937900
606.00	3.94373500	0.01851700
608.00	3.93950700	0.01767000
610.00	3.93540000	0.01690000
612.00	3.93189600	0.01669000
614.00	3.92845200	0.01657700
616.00	3.92498000	0.01651900
618.00	3.92139200	0.01647400
620.00	3.91760000	0.01640000
622.00	3.91273800	0.01595600
624.00	3.90769100	0.01547200
626.00	3.90256500	0.01498000
628.00	3.89746500	0.01451200
630.00	3.89250000	0.01410000
632.00	3.88826400	0.01396800
634.00	3.88425200	0.01390800
636.00	3.88044800	0.01390400
638.00	3.87683600	0.01394000
640.00	3.87340000	0.01400000
642.00	3.87029700	0.01410600
644.00	3.86729400	0.01419500
646.00	3.86433400	0.01424100
648.00	3.86135500	0.01421800
650.00	3.85830000	0.01410000
652.00	3.85445600	0.01350700
654.00	3.85058000	0.01285800
656.00	3.84677600	0.01221400
658.00	3.84314800	0.01164100
660.00	3.83980000	0.01120000
662.00	3.83780900	0.01145100
664.00	3.83606200	0.01183800
666.00	3.83442100	0.01229800
668.00	3.83274700	0.01277300
670.00	3.83090000	0.01320000
672.00	3.82786100	0.01316100
674.00	3.82459000	0.01304200
676.00	3.82117000	0.01287400
678.00	3.81767900	0.01268300
680.00	3.81420000	0.01250000
682.00	3.81111000	0.01254800
684.00	3.80811900	0.01261200
686.00	3.80523300	0.01267200
688.00	3.80245700	0.01270800
690.00	3.79980000	0.01270000
692.00	3.79740700	0.01251600
694.00	3.79511000	0.01227600
696.00	3.79287800	0.01198800
698.00	3.79068500	0.01166000
700.00	3.78850000	0.01130000
702.00	3.78632400	0.01072700
704.00	3.78409200	0.01018600
706.00	3.78176800	0.00973000
708.00	3.77931600	0.00941700
710.00	3.77670000	0.00930000
712.00	3.77326000	0.01016200
714.00	3.76974000	0.01114900
716.00	3.76626000	0.01213500
718.00	3.76294000	0.01299400
720.00	3.75990000	0.01360000
722.00	3.75812100	0.01276000
724.00	3.75664600	0.01168000
726.00	3.75538200	0.01050000
728.00	3.75423100	0.00936000
730.00	3.75310000	0.00840000
732.00	3.75150900	0.00877800
734.00	3.74984200	0.00936100
736.00	3.74810200	0.01003500
738.00	3.74628700	0.01068600
740.00	3.74440000	0.01120000
742.00	3.74234800	0.01063600
744.00	3.74024800	0.00991200
746.00	3.73812400	0.00912000
748.00	3.73600000	0.00835200
750.00	3.73390000	0.00770000
752.00	3.73196600	0.00784500
754.00	3.73007500	0.00814200
756.00	3.72822100	0.00853800
758.00	3.72639800	0.00897500
760.00	3.72460000	0.00940000
762.00	3.72289300	0.00947800
764.00	3.72118300	0.00950300
766.00	3.71944600	0.00948900
768.00	3.71765900	0.00945000
770.00	3.71580000	0.00940000
772.00	3.71339400	0.00953400
774.00	3.71098100	0.00964100
776.00	3.70865100	0.00969100
778.00	3.70649500	0.00965400
780.00	3.70460000	0.00950000
782.00	3.70379700	0.00890000
784.00	3.70325000	0.00819600
786.00	3.70286600	0.00743200
788.00	3.70254700	0.00665200
790.00	3.70220000	0.00590000
792.00	3.70128400	0.00544100
794.00	3.70026000	0.00504200
796.00	3.69914400	0.00469400
798.00	3.69795200	0.00438300
800.00	3.69670000	0.00410000
802.00	3.69544900	0.00375300
804.00	3.69415900	0.00343000
806.00	3.69283400	0.00314200
808.00	3.69147900	0.00289500
810.00	3.69010000	0.00270000
812.00	3.68803800	0.00268000
814.00	3.68612700	0.00270000
816.00	3.68453700	0.00274000
818.00	3.68343800	0.00278000
820.00	3.68300000	0.00280000
822.00	3.68601200	0.00260700
824.00	3.68937200	0.00239800
826.00	3.69259600	0.00219400
828.00	3.69520000	0.00202100
830.00	3.69670000	0.00190000
832.00	3.69661200	0.00185500
834.00	3.69445200	0.00191000
836.00	3.68973600	0.00208600
838.00	3.68198000	0.00240900
840.00	3.67070000	0.00290000
