; From SOPRA S.A. http://www.sopra-sa.com/indices.htm
; Filename    Symbol               Range (nm)     Description
; SICR        Si                  163     2479    Crystalline Silicon
; lambda/nm       n         k
163.14	0.52512000	2.16784000
163.57	0.53293800	2.17385700
164.00	0.54031200	2.18008700
164.44	0.54726500	2.18652400
164.87	0.55382000	2.19316400
165.31	0.56000000	2.20000000
165.76	0.56582800	2.20702900
166.20	0.57132700	2.21424400
166.65	0.57652000	2.22164100
167.10	0.58143000	2.22921500
167.55	0.58608000	2.23696000
168.00	0.59049300	2.24487200
168.46	0.59469300	2.25294400
168.92	0.59870200	2.26117400
169.38	0.60254300	2.26955400
169.84	0.60624000	2.27808000
170.31	0.60981600	2.28674700
170.78	0.61329300	2.29554900
171.25	0.61669500	2.30448200
171.72	0.62004300	2.31354100
172.20	0.62335700	2.32272100
172.68	0.62664800	2.33202100
173.16	0.62995600	2.34143200
173.65	0.63331400	2.35094400
174.14	0.63674900	2.36055200
174.63	0.64027500	2.37025300
175.12	0.64389000	2.38005000
175.62	0.64766600	2.38992300
176.12	0.65163800	2.39986400
176.62	0.65586900	2.40985500
177.12	0.66045100	2.41987200
177.63	0.66558800	2.42985600
178.14	0.67108800	2.43986400
178.65	0.67686600	2.44992600
179.17	0.68287300	2.46005600
179.69	0.68909400	2.47025600
180.21	0.69549500	2.48052800
180.74	0.70205200	2.49089600
181.26	0.70874500	2.50137200
181.80	0.71553900	2.51197600
182.33	0.72238500	2.52273600
182.87	0.72919300	2.53370900
183.41	0.73602300	2.54484800
183.95	0.74290000	2.55613100
184.50	0.74982500	2.56755200
185.05	0.75677900	2.57911700
185.61	0.76372900	2.59084100
186.16	0.77072100	2.60269100
186.72	0.77778100	2.61465000
187.29	0.78492700	2.62669900
187.86	0.79217100	2.63882300
188.43	0.79953100	2.65099100
189.00	0.80701500	2.66321400
189.58	0.81462500	2.67548600
190.16	0.82238100	2.68780900
190.75	0.83031600	2.70019700
191.34	0.83850700	2.71270700
191.93	0.84687300	2.72524200
192.52	0.85537300	2.73773700
193.12	0.86398600	2.75016300
193.73	0.87271200	2.76252900
194.33	0.88156100	2.77491200
194.95	0.89047900	2.78712100
195.56	0.89943600	2.79907300
196.18	0.90839200	2.81063600
196.80	0.91729500	2.82163100
197.43	0.92603100	2.83164000
198.06	0.93469400	2.84106400
198.69	0.94332700	2.85011100
199.33	0.95194200	2.85885300
199.98	0.96051700	2.86723300
200.62	0.96899700	2.87505500
201.27	0.97748300	2.88276500
201.93	0.98636100	2.89108500
202.59	0.99534900	2.89977500
203.25	1.00349800	2.90763200
203.92	1.00004800	2.90533700
204.60	0.99525300	2.90138100
205.27	0.99284800	2.89873000
205.96	0.99656400	2.90034900
206.64	1.01013600	2.90920100
207.33	1.03522200	2.92832800
208.03	1.04697700	2.94214400
208.73	1.06549500	2.93902800
209.43	1.06870400	2.96086700
210.14	1.08037000	2.97983000
210.86	1.09031800	2.98963000
211.58	1.10140700	3.00348000
212.30	1.10974000	3.01565000
213.03	1.11880200	3.02508500
213.77	1.13254400	3.04478300
214.51	1.13910500	3.06055000
215.25	1.15478800	3.07263400
216.00	1.16458300	3.08631200
216.76	1.17511700	3.10270500
217.52	1.18588500	3.11961500
218.28	1.19508600	3.13498800
219.06	1.21069300	3.15007600
219.83	1.22184400	3.16915500
220.61	1.23471400	3.19006500
221.40	1.24747300	3.20674300
222.20	1.26524900	3.22792600
222.99	1.28067300	3.24533500
223.80	1.29839900	3.26703300
224.61	1.31861400	3.28518600
225.43	1.33997400	3.30158400
226.25	1.36204900	3.31861700
227.08	1.38925600	3.33441800
227.91	1.41626300	3.34957200
228.75	1.44468700	3.35933200
229.60	1.47176200	3.36638900
230.46	1.50138400	3.36855700
231.32	1.52610500	3.36745700
232.18	1.54820800	3.36375400
233.05	1.56554800	3.35851200
233.93	1.57855100	3.35285900
234.82	1.58549200	3.34631500
235.71	1.58987100	3.34426000
236.61	1.59139600	3.34368900
237.52	1.59188700	3.34714000
238.43	1.58869600	3.35363400
239.35	1.58614300	3.36306100
240.28	1.58156200	3.37555900
241.22	1.57829400	3.38948600
242.16	1.57377300	3.40823000
243.11	1.57107300	3.42924700
244.07	1.56967900	3.45084200
245.03	1.56881600	3.47686800
246.00	1.56829300	3.50370500
246.98	1.56890300	3.53349000
247.97	1.57044600	3.56473600
248.97	1.57494700	3.59784600
249.97	1.57955500	3.63253700
250.98	1.58427500	3.67001100
252.00	1.59086000	3.70933400
253.03	1.59703900	3.74918900
254.07	1.60841800	3.78894700
255.11	1.61756000	3.83512300
256.17	1.62913300	3.88012200
257.23	1.64319700	3.92857900
258.30	1.65767800	3.97909400
259.38	1.67326900	4.03147700
260.47	1.69202700	4.08837500
261.57	1.71318100	4.14868300
262.68	1.73710500	4.21114600
263.80	1.76411100	4.27810000
264.93	1.79390000	4.35062300
266.06	1.83134100	4.42619500
267.21	1.87450400	4.50629600
268.37	1.92744500	4.59051200
269.53	1.98794000	4.67807900
270.71	2.05927000	4.76456900
271.90	2.14090500	4.84967000
273.10	2.23435000	4.93322300
274.30	2.33895700	5.01132600
275.52	2.45172800	5.08195700
276.75	2.57196100	5.14776000
277.99	2.69982200	5.20606900
279.25	2.83395000	5.25772900
280.51	2.97449200	5.30400800
281.78	3.12071600	5.34381800
283.07	3.27711800	5.38062800
284.37	3.44475700	5.41369400
285.68	3.63446100	5.43531800
287.00	3.85004600	5.43846300
288.34	4.08698900	5.39494000
289.69	4.31958600	5.29987400
291.05	4.52564300	5.15633100
292.42	4.68640100	4.98743100
293.80	4.80472200	4.81094700
295.20	4.88813100	4.63918800
296.62	4.94118700	4.47988500
298.04	4.97698400	4.33428800
299.48	4.99944700	4.20392400
300.93	5.01238000	4.08585500
302.40	5.01959800	3.97912200
303.89	5.02102100	3.88449700
305.38	5.02014200	3.79821200
306.89	5.01760300	3.72004800
308.42	5.01458900	3.64962500
309.96	5.01056100	3.58644900
311.52	5.00866200	3.52885500
313.09	5.00980400	3.47669700
314.68	5.00902200	3.42926200
316.29	5.01196800	3.38549500
317.91	5.01599700	3.34601500
319.55	5.02156500	3.30957800
321.21	5.02933200	3.27515200
322.88	5.03963400	3.24180500
324.57	5.05226500	3.21102700
326.28	5.06495200	3.18167300
328.00	5.07903800	3.15405200
329.75	5.09542000	3.12746300
331.51	5.11457200	3.10259400
333.29	5.13450300	3.07897400
335.10	5.15551900	3.05762100
336.92	5.17912800	3.03873100
338.76	5.20403300	3.02096200
340.62	5.23096500	3.00651400
342.50	5.26145800	2.99489400
344.40	5.29564500	2.98660700
346.33	5.33563800	2.98256700
348.27	5.38341000	2.98355600
350.24	5.44172900	2.98909100
352.23	5.51489600	2.99908300
354.24	5.60988500	3.01433900
356.28	5.73358200	3.02673500
358.34	5.89401800	3.02214200
360.42	6.08828100	2.98097400
362.53	6.30722800	2.88014300
364.66	6.52146900	2.70488900
366.82	6.69487200	2.45553800
369.00	6.79633700	2.16782500
371.21	6.82889700	1.86846300
373.45	6.79787900	1.57645700
375.71	6.70742300	1.31987100
378.00	6.58566000	1.10942000
380.32	6.45225900	0.94458200
382.67	6.31582200	0.81485400
385.05	6.18508200	0.71379300
387.45	6.06231300	0.62979200
389.89	5.94805300	0.56103200
392.36	5.84163200	0.50462100
394.86	5.74364400	0.45555600
397.39	5.65376500	0.41640200
399.95	5.56993100	0.38795100
402.55	5.49235700	0.35582500
405.18	5.42003100	0.32827700
407.85	5.34915700	0.31238400
410.55	5.28362300	0.29126300
413.28	5.23397300	0.27769000
416.06	5.17494200	0.26065200
418.87	5.11913500	0.24528400
421.72	5.06624600	0.23142200
424.61	5.01598600	0.21894800
427.54	4.96809900	0.20772800
430.50	4.92237900	0.19756700
433.51	4.87866900	0.18820100
436.57	4.83684100	0.17936600
439.66	4.79677400	0.17088400
442.80	4.75834700	0.16274800
445.99	4.72142800	0.15511400
449.22	4.68589900	0.14821600
452.50	4.65165800	0.14221300
455.83	4.61863500	0.13704900
459.20	4.58678400	0.13239800
462.63	4.55607600	0.12774000
466.11	4.52648400	0.12255400
469.64	4.49797100	0.11654200
473.23	4.47048000	0.10976300
476.87	4.44393300	0.10260400
480.56	4.41824100	0.09560800
484.32	4.39332200	0.08925500
488.13	4.36910800	0.08381000
492.00	4.34555500	0.07928300
495.94	4.32263900	0.07549400
499.94	4.30034000	0.07216800
504.00	4.27864500	0.06903300
508.14	4.25753800	0.06588300
512.34	4.23700200	0.06261400
516.60	4.21701300	0.05924400
520.95	4.19754300	0.05588300
525.36	4.17856300	0.05268400
529.85	4.16004800	0.04976400
534.42	4.14197900	0.04715100
539.07	4.12435000	0.04478000
543.79	4.10715700	0.04254800
548.61	4.09039700	0.04037900
553.51	4.07406400	0.03826300
558.49	4.05814300	0.03625100
563.57	4.04261900	0.03440700
568.74	4.02747700	0.03277700
574.01	4.01270400	0.03136400
579.37	3.99829200	0.03013100
584.84	3.98423000	0.02901500
590.41	3.97050600	0.02794500
596.08	3.95710100	0.02686300
601.87	3.94399200	0.02573800
607.77	3.93115500	0.02456600
613.79	3.91857100	0.02335800
619.93	3.90623000	0.02213300
626.19	3.89307000	0.02146900
632.58	3.88148100	0.01953700
639.10	3.87025900	0.01771000
645.76	3.85831300	0.01678200
652.55	3.84675000	0.01636300
659.50	3.83674600	0.01571900
666.59	3.82572900	0.01495000
673.83	3.81510300	0.01404100
681.24	3.80537400	0.01346600
688.81	3.79646100	0.01303500
696.55	3.78732000	0.01250700
704.46	3.77801200	0.01191100
712.56	3.76841100	0.01136500
720.84	3.76045700	0.01086100
729.32	3.75217800	0.01045200
738.01	3.74493200	0.00993800
746.90	3.73628500	0.00934000
756.01	3.72758500	0.00876900
765.34	3.72091200	0.00823100
774.91	3.71375200	0.00771900
784.72	3.70524500	0.00718700
794.78	3.69708500	0.00663400
805.10	3.68770400	0.00611600
815.69	3.68094000	0.00561000
826.57	3.67186200	0.00528800
837.74	3.66309500	0.00498200
849.21	3.65479600	0.00468800
861.01	3.64667000	0.00442600
873.14	3.63872800	0.00419800
885.61	3.63129800	0.00398700
898.44	3.62484300	0.00378000
911.66	3.61890200	0.00358300
925.26	3.61328400	0.00339600
939.28	3.60784800	0.00321600
953.73	3.60250000	0.00303300
968.63	3.59699600	0.00282500
984.01	3.59148700	0.00261800
999.88	3.58601700	0.00241900
1016.27	3.58059000	0.00224100
1033.21	3.57516600	0.00210100
1050.72	3.56970300	0.00204500
1068.84	3.56423500	0.00202000
1087.59	3.55878000	0.00200600
1107.01	3.55333800	0.00198200
1127.14	3.54789300	0.00192600
1148.01	3.54240100	0.00178700
1169.67	3.53693100	0.00161000
1192.17	3.53151500	0.00141500
1215.54	3.52619000	0.00121200
1239.85	3.52099200	0.00099900
1265.15	3.51600900	0.00077800
1291.51	3.51117400	0.00056200
1318.99	3.50646300	0.00035400
1347.67	3.50186200	0.00016900
1377.61	3.49736100	0.00003100
1408.92	3.49292100	0.00000100
1441.69	3.48858800	0.00000000
1476.01	3.48438100	0.00000000
1512.01	3.48031900	0.00000000
1549.81	3.47641200	0.00000000
1589.55	3.47268800	0.00000000
1631.38	3.46913500	0.00000000
1675.48	3.46575000	0.00000000
1722.02	3.46253700	0.00000000
1771.22	3.45950000	0.00000000
1823.31	3.45664400	0.00000000
1878.56	3.45397300	0.00000000
1937.27	3.45141100	0.00000000
1999.76	3.44904000	0.00000000
2066.42	3.44710000	0.00000000
2137.68	3.44612900	0.00000000
2214.02	3.44547900	0.00000000
2296.02	3.44488000	0.00000000
2384.33	3.44406200	0.00000000
2479.70	3.44275300	0.00000000
