; From SOPRA S.A. http://www.sopra-sa.com/indices.htm
; Filename    Symbol               Range (nm)     Description
; SIO2        SiO2                163     2066    Silicon Dioxide
; lambda/nm       n         k
163.14	1.65300000	0.00000000
165.31	1.64250000	0.00000000
167.55	1.63300000	0.00000000
169.84	1.62425000	0.00000000
172.20	1.61600000	0.00000000
174.63	1.60785100	0.00000000
177.12	1.60000000	0.00000000
179.69	1.59249300	0.00000000
182.33	1.58538700	0.00000000
185.05	1.57879200	0.00000000
187.86	1.57270400	0.00000000
190.75	1.56700000	0.00000000
193.73	1.56156000	0.00000000
196.80	1.55644000	0.00000000
199.98	1.55177700	0.00000000
203.25	1.54743400	0.00000000
206.64	1.54300000	0.00000000
210.14	1.53820000	0.00000000
213.77	1.53440000	0.00000000
217.52	1.53070000	0.00000000
221.40	1.52720000	0.00000000
225.43	1.52380000	0.00000000
229.60	1.52050000	0.00000000
233.93	1.51740000	0.00000000
238.43	1.51430000	0.00000000
243.11	1.51140000	0.00000000
247.97	1.50860000	0.00000000
253.03	1.50580000	0.00000000
258.30	1.50320000	0.00000000
263.80	1.50060000	0.00000000
269.53	1.49820000	0.00000000
275.52	1.49580000	0.00000000
281.78	1.49350000	0.00000000
288.34	1.49130000	0.00000000
295.20	1.48920000	0.00000000
302.40	1.48710000	0.00000000
309.96	1.48510000	0.00000000
317.91	1.48320000	0.00000000
326.28	1.48140000	0.00000000
335.10	1.47960000	0.00000000
344.40	1.47790000	0.00000000
354.24	1.47620000	0.00000000
364.66	1.47460000	0.00000000
375.71	1.47300000	0.00000000
387.45	1.47160000	0.00000000
399.95	1.47010000	0.00000000
413.28	1.46870000	0.00000000
427.54	1.46740000	0.00000000
442.80	1.46610000	0.00000000
459.20	1.46490000	0.00000000
476.87	1.46370000	0.00000000
495.94	1.46260000	0.00000000
516.60	1.46140000	0.00000000
539.07	1.46040000	0.00000000
563.57	1.45940000	0.00000000
590.41	1.45840000	0.00000000
619.93	1.45740000	0.00000000
652.55	1.45650000	0.00000000
688.81	1.45560000	0.00000000
729.32	1.45470000	0.00000000
774.91	1.45380000	0.00000000
826.57	1.45290000	0.00000000
885.61	1.45200000	0.00000000
953.73	1.45100000	0.00000000
1033.21	1.45000000	0.00000000
1127.14	1.44890000	0.00000000
1239.85	1.44760000	0.00000000
1377.61	1.44604000	0.00000000
1549.81	1.44403000	0.00000000
1771.22	1.44124000	0.00000000
2066.42	1.43709000	0.00000000
