; Refractive index spectrum for SiO2 by Lemarchand
;
; F. Lemarchand, <i>private communications</i> (2013). Measurement method described in:<br>L. Gao, F. Lemarchand, and M. Lequime. Exploitation of multiple incidences spectrometric measurements for thin film reverse engineering, <a href="http://dx.doi.org/10.1364/OE.20.015734"><i>Opt. Express</i> <b>20</b>, 15734-15751 (2012)</a>
;
; 580-nm monolayer deposited on BK7 substrate using the magnetron sputtering technique.
;
; lambda/nm    n     k
250.00 	1.51746200 	0.00026000 
255.00 	1.51522800 	0.00024000 
260.00 	1.51313600 	0.00022200 
265.00 	1.51117300 	0.00020600 
270.00 	1.50932900 	0.00019100 
275.00 	1.50759500 	0.00017900 
280.00 	1.50596100 	0.00016700 
285.00 	1.50442100 	0.00015700 
290.00 	1.50296600 	0.00014800 
295.00 	1.50159000 	0.00013900 
300.00 	1.50028800 	0.00013200 
305.00 	1.49905500 	0.00012500 
310.00 	1.49788500 	0.00011800 
315.00 	1.49677400 	0.00011200 
320.00 	1.49571900 	0.00010700 
325.00 	1.49471500 	0.00010200 
330.00 	1.49375900 	0.00000000 
335.00 	1.49284900 	0.00000000 
340.00 	1.49198100 	0.00000000 
345.00 	1.49115200 	0.00000000 
350.00 	1.49036100 	0.00000000 
355.00 	1.48960500 	0.00000000 
360.00 	1.48888200 	0.00000000 
365.00 	1.48818900 	0.00000000 
370.00 	1.48752700 	0.00000000 
375.00 	1.48689100 	0.00000000 
380.00 	1.48628200 	0.00000000 
385.00 	1.48569800 	0.00000000 
390.00 	1.48513700 	0.00000000 
395.00 	1.48459800 	0.00000000 
400.00 	1.48408000 	0.00000000 
405.00 	1.48358200 	0.00000000 
410.00 	1.48310200 	0.00000000 
415.00 	1.48264100 	0.00000000 
420.00 	1.48219700 	0.00000000 
425.00 	1.48176800 	0.00000000 
430.00 	1.48135600 	0.00000000 
435.00 	1.48095800 	0.00000000 
440.00 	1.48057300 	0.00000000 
445.00 	1.48020300 	0.00000000 
450.00 	1.47984400 	0.00000000 
455.00 	1.47949800 	0.00000000 
460.00 	1.47916400 	0.00000000 
465.00 	1.47884100 	0.00000000 
470.00 	1.47852800 	0.00000000 
475.00 	1.47822500 	0.00000000 
480.00 	1.47793200 	0.00000000 
485.00 	1.47764900 	0.00000000 
490.00 	1.47737400 	0.00000000 
495.00 	1.47710700 	0.00000000 
500.00 	1.47684900 	0.00000000 
505.00 	1.47659900 	0.00000000 
510.00 	1.47635600 	0.00000000 
515.00 	1.47612100 	0.00000000 
520.00 	1.47589200 	0.00000000 
525.00 	1.47567000 	0.00000000 
530.00 	1.47545500 	0.00000000 
535.00 	1.47524500 	0.00000000 
540.00 	1.47504200 	0.00000000 
545.00 	1.47484400 	0.00000000 
550.00 	1.47465200 	0.00000000 
555.00 	1.47446400 	0.00000000 
560.00 	1.47428300 	0.00000000 
565.00 	1.47410600 	0.00000000 
570.00 	1.47393300 	0.00000000 
575.00 	1.47376600 	0.00000000 
580.00 	1.47360200 	0.00000000 
585.00 	1.47344300 	0.00000000 
590.00 	1.47328800 	0.00000000 
595.00 	1.47313700 	0.00000000 
600.00 	1.47299000 	0.00000000 
605.00 	1.47284700 	0.00000000 
610.00 	1.47270700 	0.00000000 
615.00 	1.47257000 	0.00000000 
620.00 	1.47243700 	0.00000000 
625.00 	1.47230700 	0.00000000 
630.00 	1.47218100 	0.00000000 
635.00 	1.47205700 	0.00000000 
640.00 	1.47193600 	0.00000000 
645.00 	1.47181800 	0.00000000 
650.00 	1.47170300 	0.00000000 
655.00 	1.47159100 	0.00000000 
660.00 	1.47148100 	0.00000000 
665.00 	1.47137300 	0.00000000 
670.00 	1.47126800 	0.00000000 
675.00 	1.47116600 	0.00000000 
680.00 	1.47106500 	0.00000000 
685.00 	1.47096700 	0.00000000 
690.00 	1.47087100 	0.00000000 
695.00 	1.47077800 	0.00000000 
700.00 	1.47068600 	0.00000000 
705.00 	1.47059600 	0.00000000 
710.00 	1.47050800 	0.00000000 
715.00 	1.47042200 	0.00000000 
720.00 	1.47033800 	0.00000000 
725.00 	1.47025500 	0.00000000 
730.00 	1.47017400 	0.00000000 
735.00 	1.47009500 	0.00000000 
740.00 	1.47001800 	0.00000000 
745.00 	1.46994200 	0.00000000 
750.00 	1.46986700 	0.00000000 
755.00 	1.46979400 	0.00000000 
760.00 	1.46972300 	0.00000000 
765.00 	1.46965300 	0.00000000 
770.00 	1.46958400 	0.00000000 
775.00 	1.46951700 	0.00000000 
780.00 	1.46945100 	0.00000000 
785.00 	1.46938600 	0.00000000 
790.00 	1.46932300 	0.00000000 
795.00 	1.46926000 	0.00000000 
800.00 	1.46919900 	0.00000000 
805.00 	1.46913900 	0.00000000 
810.00 	1.46908000 	0.00000000 
815.00 	1.46902300 	0.00000000 
820.00 	1.46896600 	0.00000000 
825.00 	1.46891000 	0.00000000 
830.00 	1.46885500 	0.00000000 
835.00 	1.46880200 	0.00000000 
840.00 	1.46874900 	0.00000000 
845.00 	1.46869700 	0.00000000 
850.00 	1.46864600 	0.00000000 
855.00 	1.46859700 	0.00000000 
860.00 	1.46854700 	0.00000000 
865.00 	1.46849900 	0.00000000 
870.00 	1.46845200 	0.00000000 
875.00 	1.46840500 	0.00000000 
880.00 	1.46836000 	0.00000000 
885.00 	1.46831500 	0.00000000 
890.00 	1.46827000 	0.00000000 
895.00 	1.46822700 	0.00000000 
900.00 	1.46818400 	0.00000000 
905.00 	1.46814200 	0.00000000 
910.00 	1.46810100 	0.00000000 
915.00 	1.46806000 	0.00000000 
920.00 	1.46802000 	0.00000000 
925.00 	1.46798100 	0.00000000 
930.00 	1.46794200 	0.00000000 
935.00 	1.46790400 	0.00000000 
940.00 	1.46786600 	0.00000000 
945.00 	1.46783000 	0.00000000 
950.00 	1.46779300 	0.00000000 
955.00 	1.46775800 	0.00000000 
960.00 	1.46772200 	0.00000000 
965.00 	1.46768800 	0.00000000 
970.00 	1.46765400 	0.00000000 
975.00 	1.46762000 	0.00000000 
980.00 	1.46758700 	0.00000000 
985.00 	1.46755500 	0.00000000 
990.00 	1.46752300 	0.00000000 
995.00 	1.46749100 	0.00000000 
1000.00 	1.46746000 	0.00000000 
1005.00 	1.46742900 	0.00000000 
1010.00 	1.46739900 	0.00000000 
1015.00 	1.46736900 	0.00000000 
1020.00 	1.46734000 	0.00000000 
1025.00 	1.46731100 	0.00000000 
1030.00 	1.46728300 	0.00000000 
1035.00 	1.46725500 	0.00000000 
1040.00 	1.46722700 	0.00000000 
1045.00 	1.46720000 	0.00000000 
1050.00 	1.46717300 	0.00000000 
1055.00 	1.46714700 	0.00000000 
1060.00 	1.46712100 	0.00000000 
1065.00 	1.46709500 	0.00000000 
1070.00 	1.46707000 	0.00000000 
1075.00 	1.46704500 	0.00000000 
1080.00 	1.46702000 	0.00000000 
1085.00 	1.46699600 	0.00000000 
1090.00 	1.46697200 	0.00000000 
1095.00 	1.46694900 	0.00000000 
1100.00 	1.46692500 	0.00000000 
1105.00 	1.46690200 	0.00000000 
1110.00 	1.46688000 	0.00000000 
1115.00 	1.46685700 	0.00000000 
1120.00 	1.46683500 	0.00000000 
1125.00 	1.46681300 	0.00000000 
1130.00 	1.46679200 	0.00000000 
1135.00 	1.46677100 	0.00000000 
1140.00 	1.46675000 	0.00000000 
1145.00 	1.46672900 	0.00000000 
1150.00 	1.46670900 	0.00000000 
1155.00 	1.46668900 	0.00000000 
1160.00 	1.46666900 	0.00000000 
1165.00 	1.46664900 	0.00000000 
1170.00 	1.46663000 	0.00000000 
1175.00 	1.46661100 	0.00000000 
1180.00 	1.46659200 	0.00000000 
1185.00 	1.46657400 	0.00000000 
1190.00 	1.46655500 	0.00000000 
1195.00 	1.46653700 	0.00000000 
1200.00 	1.46651900 	0.00000000 
1205.00 	1.46650200 	0.00000000 
1210.00 	1.46648400 	0.00000000 
1215.00 	1.46646700 	0.00000000 
1220.00 	1.46645000 	0.00000000 
1225.00 	1.46643300 	0.00000000 
1230.00 	1.46641600 	0.00000000 
1235.00 	1.46640000 	0.00000000 
1240.00 	1.46638400 	0.00000000 
1245.00 	1.46636800 	0.00000000 
1250.00 	1.46635200 	0.00000000 
1255.00 	1.46633600 	0.00000000 
1260.00 	1.46632100 	0.00000000 
1265.00 	1.46630600 	0.00000000 
1270.00 	1.46629000 	0.00000000 
1275.00 	1.46627600 	0.00000000 
1280.00 	1.46626100 	0.00000000 
1285.00 	1.46624600 	0.00000000 
1290.00 	1.46623200 	0.00000000 
1295.00 	1.46621800 	0.00000000 
1300.00 	1.46620400 	0.00000000 
1305.00 	1.46619000 	0.00000000 
1310.00 	1.46617600 	0.00000000 
1315.00 	1.46616200 	0.00000000 
1320.00 	1.46614900 	0.00000000 
1325.00 	1.46613600 	0.00000000 
1330.00 	1.46612300 	0.00000000 
1335.00 	1.46611000 	0.00000000 
1340.00 	1.46609700 	0.00000000 
1345.00 	1.46608400 	0.00000000 
1350.00 	1.46607100 	0.00000000 
1355.00 	1.46605900 	0.00000000 
1360.00 	1.46604700 	0.00000000 
1365.00 	1.46603500 	0.00000000 
1370.00 	1.46602300 	0.00000000 
1375.00 	1.46601100 	0.00000000 
1380.00 	1.46599900 	0.00000000 
1385.00 	1.46598700 	0.00000000 
1390.00 	1.46597600 	0.00000000 
1395.00 	1.46596500 	0.00000000 
1400.00 	1.46595300 	0.00000000 
1405.00 	1.46594200 	0.00000000 
1410.00 	1.46593100 	0.00000000 
1415.00 	1.46592000 	0.00000000 
1420.00 	1.46591000 	0.00000000 
1425.00 	1.46589900 	0.00000000 
1430.00 	1.46588800 	0.00000000 
1435.00 	1.46587800 	0.00000000 
1440.00 	1.46586800 	0.00000000 
1445.00 	1.46585700 	0.00000000 
1450.00 	1.46584700 	0.00000000 
1455.00 	1.46583700 	0.00000000 
1460.00 	1.46582700 	0.00000000 
1465.00 	1.46581800 	0.00000000 
1470.00 	1.46580800 	0.00000000 
1475.00 	1.46579800 	0.00000000 
1480.00 	1.46578900 	0.00000000 
1485.00 	1.46577900 	0.00000000 
1490.00 	1.46577000 	0.00000000 
1495.00 	1.46576100 	0.00000000 
1500.00 	1.46575200 	0.00000000 
1505.00 	1.46574300 	0.00000000 
1510.00 	1.46573400 	0.00000000 
1515.00 	1.46572500 	0.00000000 
1520.00 	1.46571600 	0.00000000 
1525.00 	1.46570700 	0.00000000 
1530.00 	1.46569900 	0.00000000 
1535.00 	1.46569000 	0.00000000 
1540.00 	1.46568200 	0.00000000 
1545.00 	1.46567300 	0.00000000 
1550.00 	1.46566500 	0.00000000 
1555.00 	1.46565700 	0.00000000 
1560.00 	1.46564900 	0.00000000 
1565.00 	1.46564100 	0.00000000 
1570.00 	1.46563300 	0.00000000 
1575.00 	1.46562500 	0.00000000 
1580.00 	1.46561700 	0.00000000 
1585.00 	1.46560900 	0.00000000 
1590.00 	1.46560200 	0.00000000 
1595.00 	1.46559400 	0.00000000 
1600.00 	1.46558700 	0.00000000 
1605.00 	1.46557900 	0.00000000 
1610.00 	1.46557200 	0.00000000 
1615.00 	1.46556400 	0.00000000 
1620.00 	1.46555700 	0.00000000 
1625.00 	1.46555000 	0.00000000 
1630.00 	1.46554300 	0.00000000 
1635.00 	1.46553600 	0.00000000 
1640.00 	1.46552900 	0.00000000 
1645.00 	1.46552200 	0.00000000 
1650.00 	1.46551500 	0.00000000 
1655.00 	1.46550800 	0.00000000 
1660.00 	1.46550200 	0.00000000 
1665.00 	1.46549500 	0.00000000 
1670.00 	1.46548800 	0.00000000 
1675.00 	1.46548200 	0.00000000 
1680.00 	1.46547500 	0.00000000 
1685.00 	1.46546900 	0.00000000 
1690.00 	1.46546200 	0.00000000 
1695.00 	1.46545600 	0.00000000 
1700.00 	1.46545000 	0.00000000 
1705.00 	1.46544400 	0.00000000 
1710.00 	1.46543800 	0.00000000 
1715.00 	1.46543100 	0.00000000 
1720.00 	1.46542500 	0.00000000 
1725.00 	1.46541900 	0.00000000 
1730.00 	1.46541300 	0.00000000 
1735.00 	1.46540800 	0.00000000 
1740.00 	1.46540200 	0.00000000 
1745.00 	1.46539600 	0.00000000 
1750.00 	1.46539000 	0.00000000 
1755.00 	1.46538500 	0.00000000 
1760.00 	1.46537900 	0.00000000 
1765.00 	1.46537300 	0.00000000 
1770.00 	1.46536800 	0.00000000 
1775.00 	1.46536200 	0.00000000 
1780.00 	1.46535700 	0.00000000 
1785.00 	1.46535100 	0.00000000 
1790.00 	1.46534600 	0.00000000 
1795.00 	1.46534100 	0.00000000 
1800.00 	1.46533500 	0.00000000 
1805.00 	1.46533000 	0.00000000 
1810.00 	1.46532500 	0.00000000 
1815.00 	1.46532000 	0.00000000 
1820.00 	1.46531500 	0.00000000 
1825.00 	1.46531000 	0.00000000 
1830.00 	1.46530500 	0.00000000 
1835.00 	1.46530000 	0.00000000 
1840.00 	1.46529500 	0.00000000 
1845.00 	1.46529000 	0.00000000 
1850.00 	1.46528500 	0.00000000 
1855.00 	1.46528000 	0.00000000 
1860.00 	1.46527500 	0.00000000 
1865.00 	1.46527100 	0.00000000 
1870.00 	1.46526600 	0.00000000 
1875.00 	1.46526100 	0.00000000 
1880.00 	1.46525700 	0.00000000 
1885.00 	1.46525200 	0.00000000 
1890.00 	1.46524800 	0.00000000 
1895.00 	1.46524300 	0.00000000 
1900.00 	1.46523900 	0.00000000 
1905.00 	1.46523400 	0.00000000 
1910.00 	1.46523000 	0.00000000 
1915.00 	1.46522500 	0.00000000 
1920.00 	1.46522100 	0.00000000 
1925.00 	1.46521700 	0.00000000 
1930.00 	1.46521200 	0.00000000 
1935.00 	1.46520800 	0.00000000 
1940.00 	1.46520400 	0.00000000 
1945.00 	1.46520000 	0.00000000 
1950.00 	1.46519600 	0.00000000 
1955.00 	1.46519200 	0.00000000 
1960.00 	1.46518700 	0.00000000 
1965.00 	1.46518300 	0.00000000 
1970.00 	1.46517900 	0.00000000 
1975.00 	1.46517500 	0.00000000 
1980.00 	1.46517100 	0.00000000 
1985.00 	1.46516700 	0.00000000 
1990.00 	1.46516400 	0.00000000 
1995.00 	1.46516000 	0.00000000 
2000.00 	1.46515600 	0.00000000 
