;  Optical constants for SrTiO3
; 
;   taken from:
;
;   'Handbook of Optical Constants of Solids II', Ed. by Edward D. Palik,
;   Academic Press, Inc., 1991.
;   
;    Lambda (nm)            n            k
;-----------------------------------------
100.80	1.36200000	0.84300000
101.62	1.36800000	0.84600000
102.46	1.37400000	0.85000000
103.32	1.38000000	0.85300000
104.18	1.38600000	0.85500000
105.07	1.40200000	0.85800000
105.97	1.41800000	0.86000000
106.88	1.43200000	0.85900000
107.81	1.44500000	0.85400000
108.75	1.44700000	0.84900000
109.72	1.42800000	0.84500000
110.70	1.42200000	0.84200000
111.69	1.42500000	0.84900000
112.71	1.42800000	0.85800000
113.74	1.43000000	0.86700000
114.80	1.43100000	0.87500000
115.87	1.42600000	0.88500000
116.96	1.41700000	0.89900000
118.08	1.42800000	0.91600000
119.21	1.45800000	0.93300000
120.37	1.48000000	0.94800000
121.55	1.50200000	0.96100000
122.75	1.53100000	0.97400000
123.98	1.56300000	0.98900000
125.23	1.59400000	1.00400000
126.51	1.62300000	1.00900000
127.81	1.65300000	1.00800000
129.15	1.66700000	1.00300000
130.51	1.65900000	0.99700000
131.89	1.64300000	0.98400000
133.31	1.65900000	0.96800000
134.76	1.68000000	0.96300000
136.24	1.70000000	0.97700000
137.76	1.73400000	1.00000000
139.30	1.77900000	1.02400000
140.89	1.82800000	1.01500000
142.51	1.87700000	1.00000000
144.16	1.92600000	0.97700000
145.86	1.95100000	0.92800000
147.60	1.94200000	0.85700000
149.37	1.92000000	0.78800000
151.19	1.89300000	0.72700000
153.06	1.86500000	0.67900000
154.97	1.83800000	0.67200000
156.94	1.80800000	0.66600000
158.95	1.77700000	0.65900000
161.01	1.74600000	0.64500000
163.13	1.71500000	0.63100000
165.31	1.68900000	0.62700000
167.54	1.66300000	0.64300000
169.84	1.63700000	0.66000000
172.19	1.61200000	0.67400000
174.62	1.58700000	0.68800000
177.11	1.56300000	0.70300000
179.68	1.49500000	0.72400000
182.32	1.45200000	0.83800000
185.05	1.43800000	0.87800000
187.85	1.55800000	0.94000000
190.74	1.62400000	1.09900000
193.72	1.68800000	1.10600000
196.79	1.72100000	1.10500000
199.97	1.75300000	1.10100000
203.25	1.76800000	1.09500000
206.63	1.77000000	1.08900000
210.14	1.76000000	1.08600000
213.76	1.74500000	1.08600000
217.51	1.72200000	1.08900000
221.39	1.69600000	1.13000000
225.42	1.66400000	1.26900000
229.59	1.71900000	1.43800000
233.93	1.90500000	1.48200000
238.42	2.02500000	1.48400000
243.10	2.08500000	1.47400000
247.96	2.13900000	1.47400000
253.02	2.21800000	1.55200000
258.29	2.32900000	1.58200000
263.79	2.48200000	1.57000000
269.52	2.73100000	1.51700000
275.51	2.78500000	1.43600000
281.77	2.84000000	1.36100000
288.33	2.90900000	1.27700000
295.19	2.96200000	1.19000000
302.39	3.02600000	1.14500000
309.95	3.15800000	1.10000000
317.90	3.25000000	1.04500000
326.26	3.29700000	0.98000000
335.08	3.32000000	0.85400000
344.39	3.27500000	0.46300000
354.23	3.18000000	0.24500000
364.65	2.97400000	0.16400000
375.70	2.81200000	0.11200000
387.44	2.77300000	0.08300000
399.94	2.74500000	0.05800000
413.27	2.72700000	0.04800000
427.52	2.71200000	0.03800000
442.79	2.66900000	0.02800000
459.19	2.61000000	0.01900000
476.85	2.58100000	0.01500000
495.92	2.55200000	0.01100000
516.58	2.52400000	0.00000000
539.04	2.49500000	0.00000000
563.54	2.47500000	0.00000000
590.38	2.45600000	0.00000000
619.90	2.43700000	0.00000000
1388.66	2.26800000	0.00000000
1408.22	2.26800000	0.00000000
1428.34	2.26700000	0.00000000
1449.04	2.26700000	0.00000000
1470.35	2.26700000	0.00000000
1492.30	2.26600000	0.00000000
1514.91	2.26600000	0.00000000
1538.21	2.26500000	0.00000000
1562.25	2.26500000	0.00000000
1587.05	2.26400000	0.00000000
1612.64	2.26400000	0.00000000
1639.08	2.26300000	0.00000000
1666.40	2.26300000	0.00000000
1694.64	2.26200000	0.00000000
1723.86	2.26100000	0.00000000
1754.10	2.26100000	0.00000000
1785.43	2.26000000	0.00000000
1817.89	2.25900000	0.00000000
1851.55	2.25900000	0.00000000
1886.49	2.25800000	0.00000000
1922.77	2.25700000	0.00000000
1960.47	2.25600000	0.00000000
1999.68	2.25500000	0.00000000
2040.49	2.25400000	0.00000000
2083.00	2.25300000	0.00000000
2127.32	2.25100000	0.00000000
2173.56	2.25000000	0.00000000
2221.86	2.24900000	0.00000000
2272.36	2.24700000	0.00000000
2325.21	2.24600000	0.00000000
2380.57	2.24400000	0.00000000
2438.63	2.24200000	0.00000000
2499.60	2.24000000	0.00000000
