; Refractive index spectrum for Ta2O5 by Gao
;
; L. Gao, F. Lemarchand, and M. Lequime. Exploitation of multiple incidences spectrometric measurements for thin film reverse engineering, <a href="http://dx.doi.org/10.1364/OE.20.015734"><i>Opt. Express</i> <b>20</b>, 15734-15751 (2012)</a> (Numerical data kindly provided by F. Lemarchand)
;
; 400-nm monolayer deposited on 160-Âµm BK7 substrate using the ion assistance electronic beam deposition technique.
;
; lambda/nm    n     k
350.00 	2.31704800 	0.00065500 
352.00 	2.31339500 	0.00063700 
354.00 	2.30983200 	0.00061900 
356.00 	2.30635500 	0.00060200 
358.00 	2.30296200 	0.00058500 
360.00 	2.29964900 	0.00056900 
362.00 	2.29641400 	0.00055300 
364.00 	2.29325500 	0.00053800 
366.00 	2.29016900 	0.00052300 
368.00 	2.28715300 	0.00050900 
370.00 	2.28420500 	0.00049500 
372.00 	2.28132400 	0.00048200 
374.00 	2.27850700 	0.00046800 
376.00 	2.27575100 	0.00045600 
378.00 	2.27305600 	0.00044300 
380.00 	2.27041900 	0.00043100 
382.00 	2.26783800 	0.00041900 
384.00 	2.26531300 	0.00040800 
386.00 	2.26284000 	0.00039700 
388.00 	2.26041900 	0.00038600 
390.00 	2.25804800 	0.00037600 
392.00 	2.25572600 	0.00036500 
394.00 	2.25345100 	0.00035500 
396.00 	2.25122200 	0.00034600 
398.00 	2.24903700 	0.00033600 
400.00 	2.24689600 	0.00032700 
402.00 	2.24479700 	0.00031800 
404.00 	2.24273900 	0.00030900 
406.00 	2.24072000 	0.00030100 
408.00 	2.23874100 	0.00029200 
410.00 	2.23679900 	0.00028400 
412.00 	2.23489400 	0.00027600 
414.00 	2.23302500 	0.00026900 
416.00 	2.23119000 	0.00026100 
418.00 	2.22939000 	0.00025400 
420.00 	2.22762200 	0.00024700 
422.00 	2.22588700 	0.00024000 
424.00 	2.22418300 	0.00023300 
426.00 	2.22251000 	0.00022600 
428.00 	2.22086700 	0.00022000 
430.00 	2.21925200 	0.00021400 
432.00 	2.21766600 	0.00020700 
434.00 	2.21610800 	0.00020100 
436.00 	2.21457700 	0.00019600 
438.00 	2.21307200 	0.00019000 
440.00 	2.21159300 	0.00018400 
442.00 	2.21013900 	0.00017900 
444.00 	2.20870900 	0.00017300 
446.00 	2.20730400 	0.00016800 
448.00 	2.20592100 	0.00016300 
450.00 	2.20456200 	0.00015800 
452.00 	2.20322500 	0.00015300 
454.00 	2.20191000 	0.00014900 
456.00 	2.20061600 	0.00014400 
458.00 	2.19934300 	0.00014000 
460.00 	2.19809100 	0.00013500 
462.00 	2.19685800 	0.00013100 
464.00 	2.19564500 	0.00012700 
466.00 	2.19445100 	0.00012300 
468.00 	2.19327500 	0.00011900 
470.00 	2.19211800 	0.00011500 
472.00 	2.19097900 	0.00011100 
474.00 	2.18985700 	0.00010800 
476.00 	2.18875200 	0.00010400 
478.00 	2.18766400 	0.00010000 
480.00 	2.18659200 	0.00010000 
482.00 	2.18553700 	0.00009400 
484.00 	2.18449700 	0.00009000 
486.00 	2.18347300 	0.00008700 
488.00 	2.18246300 	0.00008400 
490.00 	2.18146900 	0.00008100 
492.00 	2.18048900 	0.00007800 
494.00 	2.17952300 	0.00007500 
496.00 	2.17857100 	0.00007300 
498.00 	2.17763300 	0.00007000 
500.00 	2.17670800 	0.00006700 
502.00 	2.17579600 	0.00006500 
504.00 	2.17489700 	0.00006200 
506.00 	2.17401000 	0.00006000 
508.00 	2.17313600 	0.00005700 
510.00 	2.17227400 	0.00005500 
512.00 	2.17142400 	0.00005300 
514.00 	2.17058600 	0.00005100 
516.00 	2.16975900 	0.00004800 
518.00 	2.16894300 	0.00004600 
520.00 	2.16813800 	0.00004400 
522.00 	2.16734500 	0.00004200 
524.00 	2.16656100 	0.00004100 
526.00 	2.16578800 	0.00003900 
528.00 	2.16502600 	0.00003700 
530.00 	2.16427300 	0.00003500 
532.00 	2.16353000 	0.00003300 
534.00 	2.16279700 	0.00003200 
536.00 	2.16207400 	0.00003000 
538.00 	2.16136000 	0.00002900 
540.00 	2.16065500 	0.00002700 
542.00 	2.15995900 	0.00002600 
544.00 	2.15927200 	0.00002400 
546.00 	2.15859300 	0.00002300 
548.00 	2.15792300 	0.00002200 
550.00 	2.15726200 	0.00002100 
552.00 	2.15660900 	0.00001900 
554.00 	2.15596400 	0.00001800 
556.00 	2.15532700 	0.00001700 
558.00 	2.15469700 	0.00001600 
560.00 	2.15407600 	0.00001500 
562.00 	2.15346200 	0.00001400 
564.00 	2.15285600 	0.00001300 
566.00 	2.15225600 	0.00001200 
568.00 	2.15166500 	0.00001100 
570.00 	2.15108000 	0.00001000 
572.00 	2.15050200 	0.00000900 
574.00 	2.14993100 	0.00000900 
576.00 	2.14936700 	0.00000800 
578.00 	2.14880900 	0.00000700 
580.00 	2.14825800 	0.00000700 
582.00 	2.14771400 	0.00000600 
584.00 	2.14717500 	0.00000500 
586.00 	2.14664300 	0.00000500 
588.00 	2.14611800 	0.00000400 
590.00 	2.14559800 	0.00000400 
592.00 	2.14508400 	0.00000300 
594.00 	2.14457600 	0.00000300 
596.00 	2.14407400 	0.00000300 
598.00 	2.14357700 	0.00000200 
600.00 	2.14308600 	0.00000200 
602.00 	2.14260100 	0.00000100 
604.00 	2.14212100 	0.00000100 
606.00 	2.14164600 	0.00000100 
608.00 	2.14117700 	0.00000100 
610.00 	2.14071200 	0.00000100 
612.00 	2.14025300 	0.00000000 
614.00 	2.13979900 	0.00000000 
616.00 	2.13935000 	0.00000000 
618.00 	2.13890600 	0.00000000 
620.00 	2.13846600 	0.00000000 
622.00 	2.13803200 	0.00000000 
624.00 	2.13760200 	0.00000000 
626.00 	2.13717600 	0.00000000 
628.00 	2.13675500 	0.00000000 
630.00 	2.13633900 	0.00000000 
632.00 	2.13592700 	0.00000000 
634.00 	2.13552000 	0.00000000 
636.00 	2.13511600 	0.00000000 
638.00 	2.13471700 	0.00000000 
640.00 	2.13432200 	0.00000000 
642.00 	2.13393100 	0.00000000 
644.00 	2.13354500 	0.00000000 
646.00 	2.13316200 	0.00000000 
648.00 	2.13278300 	0.00000000 
650.00 	2.13240800 	0.00000000 
652.00 	2.13203700 	0.00000000 
654.00 	2.13166900 	0.00000000 
656.00 	2.13130600 	0.00000000 
658.00 	2.13094600 	0.00000000 
660.00 	2.13058900 	0.00000000 
662.00 	2.13023600 	0.00000000 
664.00 	2.12988700 	0.00000000 
666.00 	2.12954100 	0.00000000 
668.00 	2.12919900 	0.00000000 
670.00 	2.12886000 	0.00000000 
672.00 	2.12852400 	0.00000000 
674.00 	2.12819100 	0.00000000 
676.00 	2.12786200 	0.00000000 
678.00 	2.12753600 	0.00000000 
680.00 	2.12721300 	0.00000000 
682.00 	2.12689300 	0.00000000 
684.00 	2.12657700 	0.00000000 
686.00 	2.12626300 	0.00000000 
688.00 	2.12595200 	0.00000000 
690.00 	2.12564500 	0.00000000 
692.00 	2.12534000 	0.00000000 
694.00 	2.12503800 	0.00000000 
696.00 	2.12473900 	0.00000000 
698.00 	2.12444300 	0.00000000 
700.00 	2.12414900 	0.00000000 
702.00 	2.12385800 	0.00000000 
704.00 	2.12357000 	0.00000000 
706.00 	2.12328500 	0.00000000 
708.00 	2.12300200 	0.00000000 
710.00 	2.12272200 	0.00000000 
712.00 	2.12244400 	0.00000000 
714.00 	2.12216900 	0.00000000 
716.00 	2.12189700 	0.00000000 
718.00 	2.12162600 	0.00000000 
720.00 	2.12135900 	0.00000000 
722.00 	2.12109300 	0.00000000 
724.00 	2.12083100 	0.00000000 
726.00 	2.12057000 	0.00000000 
728.00 	2.12031200 	0.00000000 
730.00 	2.12005600 	0.00000000 
732.00 	2.11980200 	0.00000000 
734.00 	2.11955100 	0.00000000 
736.00 	2.11930200 	0.00000000 
738.00 	2.11905500 	0.00000000 
740.00 	2.11881000 	0.00000000 
742.00 	2.11856700 	0.00000000 
744.00 	2.11832700 	0.00000000 
746.00 	2.11808800 	0.00000000 
748.00 	2.11785200 	0.00000000 
750.00 	2.11761700 	0.00000000 
752.00 	2.11738500 	0.00000000 
754.00 	2.11715500 	0.00000000 
756.00 	2.11692600 	0.00000000 
758.00 	2.11670000 	0.00000000 
760.00 	2.11647500 	0.00000000 
762.00 	2.11625300 	0.00000000 
764.00 	2.11603200 	0.00000000 
766.00 	2.11581300 	0.00000000 
768.00 	2.11559600 	0.00000000 
770.00 	2.11538100 	0.00000000 
772.00 	2.11516700 	0.00000000 
774.00 	2.11495500 	0.00000000 
776.00 	2.11474600 	0.00000000 
778.00 	2.11453700 	0.00000000 
780.00 	2.11433100 	0.00000000 
782.00 	2.11412600 	0.00000000 
784.00 	2.11392300 	0.00000000 
786.00 	2.11372200 	0.00000000 
788.00 	2.11352200 	0.00000000 
790.00 	2.11332400 	0.00000000 
792.00 	2.11312700 	0.00000000 
794.00 	2.11293200 	0.00000000 
796.00 	2.11273900 	0.00000000 
798.00 	2.11254700 	0.00000000 
800.00 	2.11235600 	0.00000000 
802.00 	2.11216800 	0.00000000 
804.00 	2.11198000 	0.00000000 
806.00 	2.11179400 	0.00000000 
808.00 	2.11161000 	0.00000000 
810.00 	2.11142700 	0.00000000 
812.00 	2.11124600 	0.00000000 
814.00 	2.11106600 	0.00000000 
816.00 	2.11088700 	0.00000000 
818.00 	2.11071000 	0.00000000 
820.00 	2.11053400 	0.00000000 
822.00 	2.11035900 	0.00000000 
824.00 	2.11018600 	0.00000000 
826.00 	2.11001500 	0.00000000 
828.00 	2.10984400 	0.00000000 
830.00 	2.10967500 	0.00000000 
832.00 	2.10950700 	0.00000000 
834.00 	2.10934000 	0.00000000 
836.00 	2.10917500 	0.00000000 
838.00 	2.10901100 	0.00000000 
840.00 	2.10884800 	0.00000000 
842.00 	2.10868700 	0.00000000 
844.00 	2.10852600 	0.00000000 
846.00 	2.10836700 	0.00000000 
848.00 	2.10820900 	0.00000000 
850.00 	2.10805200 	0.00000000 
852.00 	2.10789700 	0.00000000 
854.00 	2.10774200 	0.00000000 
856.00 	2.10758900 	0.00000000 
858.00 	2.10743700 	0.00000000 
860.00 	2.10728600 	0.00000000 
862.00 	2.10713600 	0.00000000 
864.00 	2.10698700 	0.00000000 
866.00 	2.10683900 	0.00000000 
868.00 	2.10669200 	0.00000000 
870.00 	2.10654700 	0.00000000 
872.00 	2.10640200 	0.00000000 
874.00 	2.10625900 	0.00000000 
876.00 	2.10611600 	0.00000000 
878.00 	2.10597500 	0.00000000 
880.00 	2.10583400 	0.00000000 
882.00 	2.10569500 	0.00000000 
884.00 	2.10555700 	0.00000000 
886.00 	2.10541900 	0.00000000 
888.00 	2.10528300 	0.00000000 
890.00 	2.10514700 	0.00000000 
892.00 	2.10501300 	0.00000000 
894.00 	2.10487900 	0.00000000 
896.00 	2.10474700 	0.00000000 
898.00 	2.10461500 	0.00000000 
900.00 	2.10448400 	0.00000000 
902.00 	2.10435400 	0.00000000 
904.00 	2.10422500 	0.00000000 
906.00 	2.10409700 	0.00000000 
908.00 	2.10397000 	0.00000000 
910.00 	2.10384400 	0.00000000 
912.00 	2.10371800 	0.00000000 
914.00 	2.10359400 	0.00000000 
916.00 	2.10347000 	0.00000000 
918.00 	2.10334700 	0.00000000 
920.00 	2.10322500 	0.00000000 
922.00 	2.10310400 	0.00000000 
924.00 	2.10298400 	0.00000000 
926.00 	2.10286400 	0.00000000 
928.00 	2.10274600 	0.00000000 
930.00 	2.10262800 	0.00000000 
932.00 	2.10251100 	0.00000000 
934.00 	2.10239400 	0.00000000 
936.00 	2.10227900 	0.00000000 
938.00 	2.10216400 	0.00000000 
940.00 	2.10205000 	0.00000000 
942.00 	2.10193700 	0.00000000 
944.00 	2.10182400 	0.00000000 
946.00 	2.10171300 	0.00000000 
948.00 	2.10160200 	0.00000000 
950.00 	2.10149100 	0.00000000 
952.00 	2.10138200 	0.00000000 
954.00 	2.10127300 	0.00000000 
956.00 	2.10116500 	0.00000000 
958.00 	2.10105700 	0.00000000 
960.00 	2.10095100 	0.00000000 
962.00 	2.10084500 	0.00000000 
964.00 	2.10073900 	0.00000000 
966.00 	2.10063500 	0.00000000 
968.00 	2.10053100 	0.00000000 
970.00 	2.10042800 	0.00000000 
972.00 	2.10032500 	0.00000000 
974.00 	2.10022300 	0.00000000 
976.00 	2.10012200 	0.00000000 
978.00 	2.10002100 	0.00000000 
980.00 	2.09992100 	0.00000000 
982.00 	2.09982200 	0.00000000 
984.00 	2.09972300 	0.00000000 
986.00 	2.09962500 	0.00000000 
988.00 	2.09952800 	0.00000000 
990.00 	2.09943100 	0.00000000 
992.00 	2.09933400 	0.00000000 
994.00 	2.09923900 	0.00000000 
996.00 	2.09914400 	0.00000000 
998.00 	2.09904900 	0.00000000 
1000.00 	2.09895500 	0.00000000 
1002.00 	2.09886200 	0.00000000 
1004.00 	2.09876900 	0.00000000 
1006.00 	2.09867700 	0.00000000 
1008.00 	2.09858600 	0.00000000 
1010.00 	2.09849500 	0.00000000 
1012.00 	2.09840400 	0.00000000 
1014.00 	2.09831500 	0.00000000 
1016.00 	2.09822500 	0.00000000 
1018.00 	2.09813600 	0.00000000 
1020.00 	2.09804800 	0.00000000 
1022.00 	2.09796100 	0.00000000 
1024.00 	2.09787300 	0.00000000 
1026.00 	2.09778700 	0.00000000 
1028.00 	2.09770100 	0.00000000 
1030.00 	2.09761500 	0.00000000 
1032.00 	2.09753000 	0.00000000 
1034.00 	2.09744600 	0.00000000 
1036.00 	2.09736200 	0.00000000 
1038.00 	2.09727800 	0.00000000 
1040.00 	2.09719500 	0.00000000 
1042.00 	2.09711200 	0.00000000 
1044.00 	2.09703000 	0.00000000 
1046.00 	2.09694900 	0.00000000 
1048.00 	2.09686800 	0.00000000 
1050.00 	2.09678700 	0.00000000 
1052.00 	2.09670700 	0.00000000 
1054.00 	2.09662700 	0.00000000 
1056.00 	2.09654800 	0.00000000 
1058.00 	2.09647000 	0.00000000 
1060.00 	2.09639100 	0.00000000 
1062.00 	2.09631400 	0.00000000 
1064.00 	2.09623600 	0.00000000 
1066.00 	2.09615900 	0.00000000 
1068.00 	2.09608300 	0.00000000 
1070.00 	2.09600700 	0.00000000 
1072.00 	2.09593100 	0.00000000 
1074.00 	2.09585600 	0.00000000 
1076.00 	2.09578200 	0.00000000 
1078.00 	2.09570700 	0.00000000 
1080.00 	2.09563400 	0.00000000 
1082.00 	2.09556000 	0.00000000 
1084.00 	2.09548700 	0.00000000 
1086.00 	2.09541500 	0.00000000 
1088.00 	2.09534300 	0.00000000 
1090.00 	2.09527100 	0.00000000 
1092.00 	2.09520000 	0.00000000 
1094.00 	2.09512900 	0.00000000 
1096.00 	2.09505800 	0.00000000 
1098.00 	2.09498800 	0.00000000 
1100.00 	2.09491800 	0.00000000 
1102.00 	2.09484900 	0.00000000 
1104.00 	2.09478000 	0.00000000 
1106.00 	2.09471200 	0.00000000 
1108.00 	2.09464300 	0.00000000 
1110.00 	2.09457600 	0.00000000 
1112.00 	2.09450800 	0.00000000 
1114.00 	2.09444100 	0.00000000 
1116.00 	2.09437500 	0.00000000 
1118.00 	2.09430800 	0.00000000 
1120.00 	2.09424200 	0.00000000 
1122.00 	2.09417700 	0.00000000 
1124.00 	2.09411200 	0.00000000 
1126.00 	2.09404700 	0.00000000 
1128.00 	2.09398200 	0.00000000 
1130.00 	2.09391800 	0.00000000 
1132.00 	2.09385400 	0.00000000 
1134.00 	2.09379100 	0.00000000 
1136.00 	2.09372800 	0.00000000 
1138.00 	2.09366500 	0.00000000 
1140.00 	2.09360300 	0.00000000 
1142.00 	2.09354100 	0.00000000 
1144.00 	2.09347900 	0.00000000 
1146.00 	2.09341800 	0.00000000 
1148.00 	2.09335600 	0.00000000 
1150.00 	2.09329600 	0.00000000 
1152.00 	2.09323500 	0.00000000 
1154.00 	2.09317500 	0.00000000 
1156.00 	2.09311600 	0.00000000 
1158.00 	2.09305600 	0.00000000 
1160.00 	2.09299700 	0.00000000 
1162.00 	2.09293800 	0.00000000 
1164.00 	2.09288000 	0.00000000 
1166.00 	2.09282100 	0.00000000 
1168.00 	2.09276400 	0.00000000 
1170.00 	2.09270600 	0.00000000 
1172.00 	2.09264900 	0.00000000 
1174.00 	2.09259200 	0.00000000 
1176.00 	2.09253500 	0.00000000 
1178.00 	2.09247900 	0.00000000 
1180.00 	2.09242300 	0.00000000 
1182.00 	2.09236700 	0.00000000 
1184.00 	2.09231100 	0.00000000 
1186.00 	2.09225600 	0.00000000 
1188.00 	2.09220100 	0.00000000 
1190.00 	2.09214700 	0.00000000 
1192.00 	2.09209200 	0.00000000 
1194.00 	2.09203800 	0.00000000 
1196.00 	2.09198400 	0.00000000 
1198.00 	2.09193100 	0.00000000 
1200.00 	2.09187800 	0.00000000 
1202.00 	2.09182500 	0.00000000 
1204.00 	2.09177200 	0.00000000 
1206.00 	2.09172000 	0.00000000 
1208.00 	2.09166800 	0.00000000 
1210.00 	2.09161600 	0.00000000 
1212.00 	2.09156400 	0.00000000 
1214.00 	2.09151300 	0.00000000 
1216.00 	2.09146200 	0.00000000 
1218.00 	2.09141100 	0.00000000 
1220.00 	2.09136000 	0.00000000 
1222.00 	2.09131000 	0.00000000 
1224.00 	2.09126000 	0.00000000 
1226.00 	2.09121000 	0.00000000 
1228.00 	2.09116000 	0.00000000 
1230.00 	2.09111100 	0.00000000 
1232.00 	2.09106200 	0.00000000 
1234.00 	2.09101300 	0.00000000 
1236.00 	2.09096400 	0.00000000 
1238.00 	2.09091600 	0.00000000 
1240.00 	2.09086800 	0.00000000 
1242.00 	2.09082000 	0.00000000 
1244.00 	2.09077300 	0.00000000 
1246.00 	2.09072500 	0.00000000 
1248.00 	2.09067800 	0.00000000 
1250.00 	2.09063100 	0.00000000 
1252.00 	2.09058400 	0.00000000 
1254.00 	2.09053800 	0.00000000 
1256.00 	2.09049200 	0.00000000 
1258.00 	2.09044600 	0.00000000 
1260.00 	2.09040000 	0.00000000 
1262.00 	2.09035400 	0.00000000 
1264.00 	2.09030900 	0.00000000 
1266.00 	2.09026400 	0.00000000 
1268.00 	2.09021900 	0.00000000 
1270.00 	2.09017400 	0.00000000 
1272.00 	2.09013000 	0.00000000 
1274.00 	2.09008500 	0.00000000 
1276.00 	2.09004100 	0.00000000 
1278.00 	2.08999800 	0.00000000 
1280.00 	2.08995400 	0.00000000 
1282.00 	2.08991100 	0.00000000 
1284.00 	2.08986700 	0.00000000 
1286.00 	2.08982400 	0.00000000 
1288.00 	2.08978200 	0.00000000 
1290.00 	2.08973900 	0.00000000 
1292.00 	2.08969700 	0.00000000 
1294.00 	2.08965400 	0.00000000 
1296.00 	2.08961200 	0.00000000 
1298.00 	2.08957100 	0.00000000 
1300.00 	2.08952900 	0.00000000 
1302.00 	2.08948800 	0.00000000 
1304.00 	2.08944600 	0.00000000 
1306.00 	2.08940500 	0.00000000 
1308.00 	2.08936500 	0.00000000 
1310.00 	2.08932400 	0.00000000 
1312.00 	2.08928400 	0.00000000 
1314.00 	2.08924300 	0.00000000 
1316.00 	2.08920300 	0.00000000 
1318.00 	2.08916300 	0.00000000 
1320.00 	2.08912400 	0.00000000 
1322.00 	2.08908400 	0.00000000 
1324.00 	2.08904500 	0.00000000 
1326.00 	2.08900600 	0.00000000 
1328.00 	2.08896700 	0.00000000 
1330.00 	2.08892800 	0.00000000 
1332.00 	2.08889000 	0.00000000 
1334.00 	2.08885100 	0.00000000 
1336.00 	2.08881300 	0.00000000 
1338.00 	2.08877500 	0.00000000 
1340.00 	2.08873700 	0.00000000 
1342.00 	2.08869900 	0.00000000 
1344.00 	2.08866200 	0.00000000 
1346.00 	2.08862400 	0.00000000 
1348.00 	2.08858700 	0.00000000 
1350.00 	2.08855000 	0.00000000 
1352.00 	2.08851300 	0.00000000 
1354.00 	2.08847700 	0.00000000 
1356.00 	2.08844000 	0.00000000 
1358.00 	2.08840400 	0.00000000 
1360.00 	2.08836700 	0.00000000 
1362.00 	2.08833100 	0.00000000 
1364.00 	2.08829500 	0.00000000 
1366.00 	2.08826000 	0.00000000 
1368.00 	2.08822400 	0.00000000 
1370.00 	2.08818900 	0.00000000 
1372.00 	2.08815400 	0.00000000 
1374.00 	2.08811900 	0.00000000 
1376.00 	2.08808400 	0.00000000 
1378.00 	2.08804900 	0.00000000 
1380.00 	2.08801400 	0.00000000 
1382.00 	2.08798000 	0.00000000 
1384.00 	2.08794500 	0.00000000 
1386.00 	2.08791100 	0.00000000 
1388.00 	2.08787700 	0.00000000 
1390.00 	2.08784300 	0.00000000 
1392.00 	2.08781000 	0.00000000 
1394.00 	2.08777600 	0.00000000 
1396.00 	2.08774300 	0.00000000 
1398.00 	2.08770900 	0.00000000 
1400.00 	2.08767600 	0.00000000 
1402.00 	2.08764300 	0.00000000 
1404.00 	2.08761100 	0.00000000 
1406.00 	2.08757800 	0.00000000 
1408.00 	2.08754500 	0.00000000 
1410.00 	2.08751300 	0.00000000 
1412.00 	2.08748100 	0.00000000 
1414.00 	2.08744900 	0.00000000 
1416.00 	2.08741700 	0.00000000 
1418.00 	2.08738500 	0.00000000 
1420.00 	2.08735300 	0.00000000 
1422.00 	2.08732100 	0.00000000 
1424.00 	2.08729000 	0.00000000 
1426.00 	2.08725900 	0.00000000 
1428.00 	2.08722700 	0.00000000 
1430.00 	2.08719600 	0.00000000 
1432.00 	2.08716600 	0.00000000 
1434.00 	2.08713500 	0.00000000 
1436.00 	2.08710400 	0.00000000 
1438.00 	2.08707400 	0.00000000 
1440.00 	2.08704300 	0.00000000 
1442.00 	2.08701300 	0.00000000 
1444.00 	2.08698300 	0.00000000 
1446.00 	2.08695300 	0.00000000 
1448.00 	2.08692300 	0.00000000 
1450.00 	2.08689300 	0.00000000 
1452.00 	2.08686400 	0.00000000 
1454.00 	2.08683400 	0.00000000 
1456.00 	2.08680500 	0.00000000 
1458.00 	2.08677600 	0.00000000 
1460.00 	2.08674600 	0.00000000 
1462.00 	2.08671700 	0.00000000 
1464.00 	2.08668900 	0.00000000 
1466.00 	2.08666000 	0.00000000 
1468.00 	2.08663100 	0.00000000 
1470.00 	2.08660300 	0.00000000 
1472.00 	2.08657400 	0.00000000 
1474.00 	2.08654600 	0.00000000 
1476.00 	2.08651800 	0.00000000 
1478.00 	2.08649000 	0.00000000 
1480.00 	2.08646200 	0.00000000 
1482.00 	2.08643400 	0.00000000 
1484.00 	2.08640600 	0.00000000 
1486.00 	2.08637900 	0.00000000 
1488.00 	2.08635100 	0.00000000 
1490.00 	2.08632400 	0.00000000 
1492.00 	2.08629700 	0.00000000 
1494.00 	2.08626900 	0.00000000 
1496.00 	2.08624200 	0.00000000 
1498.00 	2.08621500 	0.00000000 
1500.00 	2.08618900 	0.00000000 
1502.00 	2.08616200 	0.00000000 
1504.00 	2.08613500 	0.00000000 
1506.00 	2.08610900 	0.00000000 
1508.00 	2.08608200 	0.00000000 
1510.00 	2.08605600 	0.00000000 
1512.00 	2.08603000 	0.00000000 
1514.00 	2.08600400 	0.00000000 
1516.00 	2.08597800 	0.00000000 
1518.00 	2.08595200 	0.00000000 
1520.00 	2.08592600 	0.00000000 
1522.00 	2.08590100 	0.00000000 
1524.00 	2.08587500 	0.00000000 
1526.00 	2.08585000 	0.00000000 
1528.00 	2.08582400 	0.00000000 
1530.00 	2.08579900 	0.00000000 
1532.00 	2.08577400 	0.00000000 
1534.00 	2.08574900 	0.00000000 
1536.00 	2.08572400 	0.00000000 
1538.00 	2.08569900 	0.00000000 
1540.00 	2.08567400 	0.00000000 
1542.00 	2.08565000 	0.00000000 
1544.00 	2.08562500 	0.00000000 
1546.00 	2.08560100 	0.00000000 
1548.00 	2.08557700 	0.00000000 
1550.00 	2.08555200 	0.00000000 
1552.00 	2.08552800 	0.00000000 
1554.00 	2.08550400 	0.00000000 
1556.00 	2.08548000 	0.00000000 
1558.00 	2.08545600 	0.00000000 
1560.00 	2.08543200 	0.00000000 
1562.00 	2.08540900 	0.00000000 
1564.00 	2.08538500 	0.00000000 
1566.00 	2.08536200 	0.00000000 
1568.00 	2.08533800 	0.00000000 
1570.00 	2.08531500 	0.00000000 
1572.00 	2.08529200 	0.00000000 
1574.00 	2.08526800 	0.00000000 
1576.00 	2.08524500 	0.00000000 
1578.00 	2.08522200 	0.00000000 
1580.00 	2.08520000 	0.00000000 
1582.00 	2.08517700 	0.00000000 
1584.00 	2.08515400 	0.00000000 
1586.00 	2.08513100 	0.00000000 
1588.00 	2.08510900 	0.00000000 
1590.00 	2.08508700 	0.00000000 
1592.00 	2.08506400 	0.00000000 
1594.00 	2.08504200 	0.00000000 
1596.00 	2.08502000 	0.00000000 
1598.00 	2.08499800 	0.00000000 
1600.00 	2.08497600 	0.00000000 
1602.00 	2.08495400 	0.00000000 
1604.00 	2.08493200 	0.00000000 
1606.00 	2.08491000 	0.00000000 
1608.00 	2.08488800 	0.00000000 
1610.00 	2.08486700 	0.00000000 
1612.00 	2.08484500 	0.00000000 
1614.00 	2.08482400 	0.00000000 
1616.00 	2.08480200 	0.00000000 
1618.00 	2.08478100 	0.00000000 
1620.00 	2.08476000 	0.00000000 
1622.00 	2.08473900 	0.00000000 
1624.00 	2.08471800 	0.00000000 
1626.00 	2.08469700 	0.00000000 
1628.00 	2.08467600 	0.00000000 
1630.00 	2.08465500 	0.00000000 
1632.00 	2.08463400 	0.00000000 
1634.00 	2.08461400 	0.00000000 
1636.00 	2.08459300 	0.00000000 
1638.00 	2.08457300 	0.00000000 
1640.00 	2.08455200 	0.00000000 
1642.00 	2.08453200 	0.00000000 
1644.00 	2.08451200 	0.00000000 
1646.00 	2.08449200 	0.00000000 
1648.00 	2.08447100 	0.00000000 
1650.00 	2.08445100 	0.00000000 
1652.00 	2.08443100 	0.00000000 
1654.00 	2.08441200 	0.00000000 
1656.00 	2.08439200 	0.00000000 
1658.00 	2.08437200 	0.00000000 
1660.00 	2.08435200 	0.00000000 
1662.00 	2.08433300 	0.00000000 
1664.00 	2.08431300 	0.00000000 
1666.00 	2.08429400 	0.00000000 
1668.00 	2.08427400 	0.00000000 
1670.00 	2.08425500 	0.00000000 
1672.00 	2.08423600 	0.00000000 
1674.00 	2.08421700 	0.00000000 
1676.00 	2.08419700 	0.00000000 
1678.00 	2.08417800 	0.00000000 
1680.00 	2.08415900 	0.00000000 
1682.00 	2.08414000 	0.00000000 
1684.00 	2.08412200 	0.00000000 
1686.00 	2.08410300 	0.00000000 
1688.00 	2.08408400 	0.00000000 
1690.00 	2.08406600 	0.00000000 
1692.00 	2.08404700 	0.00000000 
1694.00 	2.08402800 	0.00000000 
1696.00 	2.08401000 	0.00000000 
1698.00 	2.08399200 	0.00000000 
1700.00 	2.08397300 	0.00000000 
1702.00 	2.08395500 	0.00000000 
1704.00 	2.08393700 	0.00000000 
1706.00 	2.08391900 	0.00000000 
1708.00 	2.08390100 	0.00000000 
1710.00 	2.08388300 	0.00000000 
1712.00 	2.08386500 	0.00000000 
1714.00 	2.08384700 	0.00000000 
1716.00 	2.08382900 	0.00000000 
1718.00 	2.08381200 	0.00000000 
1720.00 	2.08379400 	0.00000000 
1722.00 	2.08377600 	0.00000000 
1724.00 	2.08375900 	0.00000000 
1726.00 	2.08374100 	0.00000000 
1728.00 	2.08372400 	0.00000000 
1730.00 	2.08370700 	0.00000000 
1732.00 	2.08368900 	0.00000000 
1734.00 	2.08367200 	0.00000000 
1736.00 	2.08365500 	0.00000000 
1738.00 	2.08363800 	0.00000000 
1740.00 	2.08362100 	0.00000000 
1742.00 	2.08360400 	0.00000000 
1744.00 	2.08358700 	0.00000000 
1746.00 	2.08357000 	0.00000000 
1748.00 	2.08355300 	0.00000000 
1750.00 	2.08353600 	0.00000000 
1752.00 	2.08352000 	0.00000000 
1754.00 	2.08350300 	0.00000000 
1756.00 	2.08348600 	0.00000000 
1758.00 	2.08347000 	0.00000000 
1760.00 	2.08345300 	0.00000000 
1762.00 	2.08343700 	0.00000000 
1764.00 	2.08342100 	0.00000000 
1766.00 	2.08340400 	0.00000000 
1768.00 	2.08338800 	0.00000000 
1770.00 	2.08337200 	0.00000000 
1772.00 	2.08335600 	0.00000000 
1774.00 	2.08334000 	0.00000000 
1776.00 	2.08332400 	0.00000000 
1778.00 	2.08330800 	0.00000000 
1780.00 	2.08329200 	0.00000000 
1782.00 	2.08327600 	0.00000000 
1784.00 	2.08326000 	0.00000000 
1786.00 	2.08324400 	0.00000000 
1788.00 	2.08322900 	0.00000000 
1790.00 	2.08321300 	0.00000000 
1792.00 	2.08319800 	0.00000000 
1794.00 	2.08318200 	0.00000000 
1796.00 	2.08316700 	0.00000000 
1798.00 	2.08315100 	0.00000000 
1800.00 	2.08313600 	0.00000000 
