; From SOPRA S.A. http://www.sopra-sa.com/indices.htm
; Filename    Symbol               Range (nm)     Description
; TIO2B       TiO2                220     2420    Titanium Dioxide (probably crystal)
; lambda/nm       n         k
220.00	1.63087800	1.47190700
230.00	1.78939700	1.45208900
240.00	1.94608600	1.43049700
250.00	2.09944100	1.40614500
260.00	2.24795300	1.37804600
270.00	2.38997300	1.34496500
280.00	2.52420900	1.30628500
290.00	2.64951200	1.26162700
300.00	2.76475800	1.21065700
310.00	2.86932000	1.15393400
320.00	2.96221000	1.09150400
330.00	3.04348900	1.02452800
340.00	3.11258800	0.95363400
350.00	3.16996100	0.88010000
360.00	3.21568300	0.80509400
370.00	3.25039200	0.72976900
380.00	3.27479300	0.65534800
390.00	3.28967100	0.58291000
400.00	3.29608400	0.51339500
410.00	3.29497400	0.44782000
420.00	3.28747700	0.38656400
430.00	3.27470500	0.33047400
440.00	3.25763600	0.27948700
450.00	3.23738400	0.23398300
460.00	3.21475900	0.19377800
470.00	3.19067400	0.15877800
480.00	3.16580800	0.12871000
490.00	3.14073000	0.10316600
500.00	3.11600800	0.08178600
510.00	3.09190300	0.06409400
520.00	3.06885800	0.04965200
530.00	3.04691100	0.03803400
540.00	3.02630800	0.02876700
550.00	3.00702000	0.02151800
560.00	2.98910000	0.01588600
570.00	2.97250500	0.01159000
580.00	2.95716700	0.00835200
590.00	2.94302200	0.00593200
600.00	2.92997900	0.00417200
610.00	2.91795600	0.00287900
620.00	2.90686500	0.00197800
630.00	2.89661200	0.00132300
640.00	2.88713000	0.00088300
650.00	2.87833200	0.00057500
660.00	2.87016300	0.00037100
670.00	2.86255900	0.00023600
680.00	2.85546800	0.00014600
690.00	2.84884400	0.00009100
700.00	2.84264000	0.00005400
710.00	2.83682800	0.00003300
720.00	2.83136800	0.00001900
730.00	2.82624100	0.00001200
740.00	2.82141400	0.00000600
750.00	2.81686800	0.00000400
760.00	2.81258200	0.00000200
770.00	2.80853700	0.00000100
780.00	2.80471400	0.00000100
790.00	2.80109600	0.00000000
800.00	2.79766900	0.00000000
810.00	2.79441900	0.00000000
820.00	2.79133400	0.00000000
830.00	2.78839900	0.00000000
840.00	2.78560300	0.00000000
850.00	2.78293500	0.00000000
860.00	2.78038500	0.00000000
870.00	2.77794500	0.00000000
880.00	2.77560500	0.00000000
890.00	2.77335700	0.00000000
900.00	2.77119300	0.00000000
910.00	2.76910800	0.00000000
920.00	2.76709700	0.00000000
930.00	2.76515600	0.00000000
940.00	2.76328100	0.00000000
950.00	2.76147000	0.00000000
960.00	2.75971900	0.00000000
970.00	2.75802700	0.00000000
980.00	2.75639000	0.00000000
990.00	2.75480700	0.00000000
1000.00	2.75327700	0.00000000
1010.00	2.75179700	0.00000000
1020.00	2.75036700	0.00000000
1030.00	2.74898400	0.00000000
1040.00	2.74764500	0.00000000
1050.00	2.74634900	0.00000000
1060.00	2.74509300	0.00000000
1070.00	2.74387300	0.00000000
1080.00	2.74268700	0.00000000
1090.00	2.74153100	0.00000000
1100.00	2.74040100	0.00000000
1110.00	2.73929500	0.00000000
1120.00	2.73821000	0.00000000
1130.00	2.73714300	0.00000000
1140.00	2.73609000	0.00000000
1150.00	2.73505000	0.00000000
1160.00	2.73402000	0.00000000
1170.00	2.73299900	0.00000000
1180.00	2.73198400	0.00000000
1190.00	2.73097600	0.00000000
1200.00	2.72997300	0.00000000
1210.00	2.72897500	0.00000000
1220.00	2.72798200	0.00000000
1230.00	2.72699500	0.00000000
1240.00	2.72601600	0.00000000
1250.00	2.72504400	0.00000000
1260.00	2.72408300	0.00000000
1270.00	2.72313600	0.00000000
1280.00	2.72220500	0.00000000
1290.00	2.72129200	0.00000000
1300.00	2.72040100	0.00000000
1310.00	2.71953500	0.00000000
1320.00	2.71870000	0.00000000
1330.00	2.71790000	0.00000000
1340.00	2.71713600	0.00000000
1350.00	2.71641500	0.00000000
1360.00	2.71574100	0.00000000
1370.00	2.71511700	0.00000000
1380.00	2.71454800	0.00000000
1390.00	2.71403600	0.00000000
1400.00	2.71358400	0.00000000
1410.00	2.71319700	0.00000000
1420.00	2.71287400	0.00000000
1430.00	2.71261900	0.00000000
1440.00	2.71243200	0.00000000
1450.00	2.71231500	0.00000000
1460.00	2.71226600	0.00000000
1470.00	2.71228700	0.00000000
1480.00	2.71237600	0.00000000
1490.00	2.71253100	0.00000000
1500.00	2.71275200	0.00000000
1510.00	2.71303600	0.00000000
1520.00	2.71338100	0.00000000
1530.00	2.71378400	0.00000000
1540.00	2.71424200	0.00000000
1550.00	2.71475400	0.00000000
1560.00	2.71531500	0.00000000
1570.00	2.71592200	0.00000000
1580.00	2.71657200	0.00000000
1590.00	2.71726200	0.00000000
1600.00	2.71798800	0.00000000
1610.00	2.71874800	0.00000000
1620.00	2.71953700	0.00000000
1630.00	2.72035200	0.00000000
1640.00	2.72119000	0.00000000
1650.00	2.72204800	0.00000000
1660.00	2.72292200	0.00000000
1670.00	2.72380800	0.00000000
1680.00	2.72470300	0.00000000
1690.00	2.72560400	0.00000000
1700.00	2.72650800	0.00000000
1710.00	2.72741100	0.00000000
1720.00	2.72831000	0.00000000
1730.00	2.72920100	0.00000000
1740.00	2.73008100	0.00000000
1750.00	2.73094700	0.00000000
1760.00	2.73179500	0.00000000
1770.00	2.73262200	0.00000000
1780.00	2.73342400	0.00000000
1790.00	2.73419900	0.00000000
1800.00	2.73494200	0.00000000
1810.00	2.73565100	0.00000000
1820.00	2.73632200	0.00000000
1830.00	2.73695100	0.00000000
1840.00	2.73753600	0.00000000
1850.00	2.73807400	0.00000000
1860.00	2.73856000	0.00000000
1870.00	2.73899100	0.00000000
1880.00	2.73936300	0.00000000
1890.00	2.73967500	0.00000000
1900.00	2.73992100	0.00000000
1910.00	2.74009900	0.00000000
1920.00	2.74020600	0.00000000
1930.00	2.74023800	0.00000000
1940.00	2.74019200	0.00000000
1950.00	2.74006400	0.00000000
1960.00	2.73985100	0.00000000
1970.00	2.73955000	0.00000000
1980.00	2.73915700	0.00000000
1990.00	2.73866800	0.00000000
2000.00	2.73808200	0.00000000
2010.00	2.73739400	0.00000000
2020.00	2.73660100	0.00000000
2030.00	2.73569900	0.00000000
2040.00	2.73468500	0.00000000
2050.00	2.73355600	0.00000000
2060.00	2.73230800	0.00000000
2070.00	2.73093800	0.00000000
2080.00	2.72944300	0.00000000
2090.00	2.72781900	0.00000000
2100.00	2.72606300	0.00000000
2110.00	2.72417100	0.00000000
2120.00	2.72214100	0.00000000
2130.00	2.71996900	0.00000000
2140.00	2.71765100	0.00000000
2150.00	2.71518500	0.00000000
2160.00	2.71256900	0.00000000
2170.00	2.70979800	0.00000000
2180.00	2.70686800	0.00000000
2190.00	2.70377800	0.00000000
2200.00	2.70052300	0.00000000
2210.00	2.69710400	0.00000000
2220.00	2.69351700	0.00000000
2230.00	2.68975900	0.00000000
2240.00	2.68583300	0.00000000
2250.00	2.68173600	0.00000000
2260.00	2.67746900	0.00000000
2270.00	2.67303100	0.00000000
2280.00	2.66842300	0.00000000
2290.00	2.66364900	0.00000000
2300.00	2.65871200	0.00000000
2310.00	2.65362000	0.00000000
2320.00	2.64837500	0.00000000
2330.00	2.64298800	0.00000000
2340.00	2.63746600	0.00000000
2350.00	2.63182100	0.00000000
2360.00	2.62606700	0.00000000
2370.00	2.62021500	0.00000000
2380.00	2.61427700	0.00000000
2390.00	2.60826900	0.00000000
2400.00	2.60220900	0.00000000
2410.00	2.59611300	0.00000000
2420.00	2.59000000	0.00000000
