; From SOPRA S.A. http://www.sopra-sa.com/indices.htm
; Filename    Symbol               Range (nm)     Description
; WSI2-A      WSi2                165    12398    Tungsten Silicide (perpendicular to c axis)
; lambda/nm       n         k
165.31	0.61900000	2.19100000
167.55	0.65600000	2.24700000
169.84	0.70600000	2.30400000
172.20	0.74700000	2.35400000
174.63	0.79200000	2.40600000
177.12	0.83800000	2.45500000
179.69	0.89500000	2.51300000
182.33	0.95200000	2.53300000
185.05	0.98700000	2.58700000
187.86	1.04600000	2.62500000
190.75	1.09000000	2.66000000
193.73	1.15900000	2.70200000
196.80	1.21000000	2.71900000
199.98	1.23400000	2.75800000
203.25	1.29500000	2.82200000
206.64	1.36000000	2.84200000
210.14	1.39300000	2.87300000
213.77	1.44300000	2.93600000
217.52	1.49300000	2.97200000
221.40	1.53700000	3.05700000
225.43	1.66000000	3.12800000
229.60	1.72200000	3.12700000
233.93	1.79400000	3.22000000
238.43	1.89300000	3.25700000
243.11	1.99500000	3.33900000
247.97	2.15600000	3.38200000
253.03	2.25900000	3.37800000
258.30	2.43800000	3.44800000
263.80	2.61400000	3.43900000
269.53	2.80800000	3.29900000
275.52	2.84700000	3.18000000
281.78	2.88200000	3.17400000
288.34	2.96700000	3.16300000
295.20	3.06400000	3.13700000
302.40	3.16100000	3.09400000
309.96	3.24800000	3.03600000
317.91	3.31300000	2.96800000
326.28	3.35900000	2.92500000
335.10	3.41100000	2.88700000
344.40	3.45700000	2.85800000
354.24	3.50800000	2.83700000
364.66	3.55900000	2.83100000
375.71	3.63300000	2.82800000
387.45	3.71000000	2.81000000
399.95	3.79300000	2.81700000
413.28	3.90300000	2.81700000
427.54	4.02100000	2.79400000
442.80	7.90700000	2.36700000
459.20	22.90000000	0.73700000
476.87	22.80000000	0.72400000
495.94	22.70000000	0.71000000
516.60	22.60000000	0.69300000
539.07	22.50000000	0.68100000
563.57	22.40000000	0.67100000
590.41	22.30000000	0.66400000
619.93	22.20000000	0.65200000
652.55	22.10000000	0.63300000
688.81	22.00000000	0.61300000
729.32	21.90000000	0.60000000
774.91	21.80000000	0.59100000
826.57	21.70000000	0.58700000
885.61	21.60000000	0.57600000
953.73	21.50000000	0.55900000
1033.21	21.40000000	0.54300000
1127.14	21.30000000	0.53300000
1239.85	21.10000000	0.52800000
1377.61	21.10000000	0.52300000
1549.81	21.00000000	0.51700000
1771.22	20.90000000	0.51100000
2066.42	20.80000000	0.50600000
2479.70	20.70000000	0.50300000
