; From SOPRA S.A. http://www.sopra-sa.com/indices.htm
; Filename    Symbol               Range (nm)     Description
; ZNCDTE9     Zn0.1Cd0.9Te        229     1127    Zinc Cadmium Telluride (90% Cd)
; lambda/nm       n         k
229.60	1.88900900	2.47719600
230.03	1.90850300	2.48238500
230.46	1.92840900	2.48713000
230.88	1.94871700	2.49139900
231.32	1.96941000	2.49515900
231.75	1.99047800	2.49838000
232.18	2.01189800	2.50102700
232.62	2.03365100	2.50307100
233.05	2.05571200	2.50447800
233.49	2.07805500	2.50521800
233.93	2.10064700	2.50526100
234.38	2.12345600	2.50458000
234.82	2.14644400	2.50314600
235.27	2.16957300	2.50093800
235.71	2.19279700	2.49793100
236.16	2.21607500	2.49410800
236.61	2.23935300	2.48945200
237.07	2.26258500	2.48395300
237.52	2.28571600	2.47760000
237.98	2.30869300	2.47039200
238.43	2.33146000	2.46232800
238.89	2.35396200	2.45341400
239.35	2.37614100	2.44366100
239.82	2.39794300	2.43308300
240.28	2.41931100	2.42170200
240.75	2.44019400	2.40954100
241.22	2.46053800	2.39663100
241.69	2.48029300	2.38300800
242.16	2.49941600	2.36870900
242.63	2.51786200	2.35377800
243.11	2.53559400	2.33826100
243.59	2.55257400	2.32220800
244.07	2.56877700	2.30567000
244.55	2.58417400	2.28870300
245.03	2.59874700	2.27136100
245.52	2.61248000	2.25370200
246.00	2.62536200	2.23578200
246.49	2.63738900	2.21765900
246.98	2.64856100	2.19938800
247.48	2.65888100	2.18102600
247.97	2.66835800	2.16262500
248.47	2.67700400	2.14423800
248.97	2.68483600	2.12591300
249.47	2.69187400	2.10769800
249.97	2.69814000	2.08963600
250.48	2.70345000	2.07203700
250.98	2.70824800	2.05440400
251.49	2.71235600	2.03704000
252.00	2.71580700	2.01997400
252.52	2.71863100	2.00323600
253.03	2.72086200	1.98684900
253.55	2.72253300	1.97083600
254.07	2.72367800	1.95521600
254.59	2.72433000	1.94000500
255.11	2.72452400	1.92521800
255.64	2.72429100	1.91086300
256.17	2.72366400	1.89695200
256.70	2.72267500	1.88348700
257.23	2.72135500	1.87047600
257.77	2.71973200	1.85791900
258.30	2.71783500	1.84581800
258.84	2.71569300	1.83417000
259.38	2.71333100	1.82297600
259.93	2.71077300	1.81222900
260.47	2.70804500	1.80192700
261.02	2.70516800	1.79206300
261.57	2.70216300	1.78263100
262.13	2.69905100	1.77362300
262.68	2.69585100	1.76503300
263.24	2.69258000	1.75685100
263.80	2.68925600	1.74907100
264.36	2.68589300	1.74168100
264.93	2.68250700	1.73467400
265.49	2.67911000	1.72804000
266.06	2.67571600	1.72177000
266.63	2.67233600	1.71585400
267.21	2.66898100	1.71028400
267.79	2.66566000	1.70504800
268.37	2.66238500	1.70014000
268.95	2.65916200	1.69554900
269.53	2.65599900	1.69126600
270.12	2.65290500	1.68728300
270.71	2.64988600	1.68359100
271.30	2.64694700	1.68018300
271.90	2.64409500	1.67704900
272.49	2.64133500	1.67418200
273.10	2.63867000	1.67157500
273.70	2.63610700	1.66922000
274.30	2.63364800	1.66711100
274.91	2.63129800	1.66524100
275.52	2.62905900	1.66360300
276.14	2.62693500	1.66219300
276.75	2.62492800	1.66100400
277.37	2.62304200	1.66003100
277.99	2.62127900	1.65926900
278.62	2.61964000	1.65871400
279.25	2.61812900	1.65836100
279.88	2.61674700	1.65820800
280.51	2.61549600	1.65824900
281.15	2.61437900	1.65848400
281.78	2.61339800	1.65890800
282.43	2.61255300	1.65952000
283.07	2.61184800	1.66031800
283.72	2.61128500	1.66130000
284.37	2.61086600	1.66246600
285.02	2.61059300	1.66381700
285.68	2.61046900	1.66535000
286.34	2.61049700	1.66706900
287.00	2.61068200	1.66897300
287.67	2.61102500	1.67106500
288.34	2.61153200	1.67334800
289.01	2.61220800	1.67582500
289.69	2.61305800	1.67850000
290.36	2.61408900	1.68137800
291.05	2.61530900	1.68446400
291.73	2.61672700	1.68776500
292.42	2.61835400	1.69128800
293.11	2.62020200	1.69504200
293.80	2.62228700	1.69903500
294.50	2.62462600	1.70327700
295.20	2.62724000	1.70777800
295.91	2.63015400	1.71254700
296.62	2.63339700	1.71759400
297.33	2.63700400	1.72292700
298.04	2.64101400	1.72855200
298.76	2.64547200	1.73447200
299.48	2.65043100	1.74068500
300.21	2.65594800	1.74718400
300.93	2.66208900	1.75395200
301.67	2.66892200	1.76096400
302.40	2.67652200	1.76818000
303.14	2.68496400	1.77554800
303.89	2.69432500	1.78299800
304.63	2.70467800	1.79044300
305.38	2.71608800	1.79777800
306.14	2.72861000	1.80487800
306.89	2.74228200	1.81159800
307.66	2.75712200	1.81778000
308.42	2.77312300	1.82324900
309.19	2.79024400	1.82782200
309.96	2.80841700	1.83131400
310.74	2.82753000	1.83354200
311.52	2.84743600	1.83433500
312.31	2.86795500	1.83354300
313.09	2.88887000	1.83104700
313.89	2.90993600	1.82676400
314.68	2.93089300	1.82065600
315.48	2.95147100	1.81273600
316.29	2.97140000	1.80306500
317.10	2.99042700	1.79175700
317.91	3.00832700	1.77896800
318.73	3.02490500	1.76489500
319.55	3.04001100	1.74976100
320.38	3.05353900	1.73380700
321.21	3.06543100	1.71728000
322.04	3.07567300	1.70042700
322.88	3.08393000	1.68429800
323.72	3.09098900	1.66749100
324.57	3.09657500	1.65099000
325.42	3.10079700	1.63496000
326.28	3.10378000	1.61953400
327.14	3.10565400	1.60482000
328.00	3.10655000	1.59090100
328.87	3.10660100	1.57783700
329.75	3.10593100	1.56566900
330.63	3.10465900	1.55442200
331.51	3.10289200	1.54410700
332.40	3.10073200	1.53472700
333.29	3.09826700	1.52627700
334.19	3.09557800	1.51874700
335.10	3.09273600	1.51212500
336.00	3.08980400	1.50640000
336.92	3.08684200	1.50156200
337.83	3.08390300	1.49760200
338.76	3.08103400	1.49451500
339.69	3.07828600	1.49230300
340.62	3.07570700	1.49097000
341.56	3.07334900	1.49052600
342.50	3.07126800	1.49098600
343.45	3.06952800	1.49236700
344.40	3.06820200	1.49469100
345.36	3.06737400	1.49797800
346.33	3.06714500	1.50224900
347.30	3.06762600	1.50751700
348.27	3.06894700	1.51378700
349.25	3.07125700	1.52105100
350.24	3.07471800	1.52928200
351.23	3.07950700	1.53842700
352.23	3.08581100	1.54840600
353.23	3.09382600	1.55910300
354.24	3.10374500	1.57036600
355.26	3.11575200	1.58199600
356.28	3.13001900	1.59375400
357.31	3.14668600	1.60535800
358.34	3.16585800	1.61648100
359.38	3.18759000	1.62676400
360.42	3.21187900	1.63582000
361.47	3.23865700	1.64324400
362.53	3.26778000	1.64862700
363.59	3.29903100	1.65157300
364.66	3.33211000	1.65171300
365.74	3.36665300	1.64872500
366.82	3.40222500	1.64234800
367.91	3.43834200	1.63239800
369.00	3.47448900	1.61878100
370.11	3.51013500	1.60149700
371.21	3.54475300	1.58064200
372.33	3.57785100	1.55640600
373.45	3.60898100	1.52906200
374.58	3.63775900	1.49895300
375.71	3.66387700	1.46647500
376.85	3.68710900	1.43205600
378.00	3.70704400	1.39617400
379.16	3.72344600	1.35900900
380.32	3.73750300	1.32140300
381.49	3.74855500	1.28354800
382.67	3.75673100	1.24579500
383.86	3.76219500	1.20844900
385.05	3.76514200	1.17177000
386.25	3.76578500	1.13596900
387.45	3.76434400	1.10121300
388.67	3.76103900	1.06762800
389.89	3.75608900	1.03530500
391.12	3.74970100	1.00430200
392.36	3.74206900	0.97465100
393.60	3.73337400	0.94636100
394.86	3.72378100	0.91942400
396.12	3.71344200	0.89381600
397.39	3.70248900	0.86950400
398.67	3.69104400	0.84644500
399.95	3.67921100	0.82459200
401.25	3.66708500	0.80389300
402.55	3.65474700	0.78429400
403.86	3.64226700	0.76574000
405.18	3.62970600	0.74817600
406.51	3.61711900	0.73154800
407.85	3.60454900	0.71580400
409.19	3.59203600	0.70089100
410.55	3.57961100	0.68676000
411.91	3.56730200	0.67336500
413.28	3.55513200	0.66065900
414.67	3.54312100	0.64860000
416.06	3.53128300	0.63714800
417.46	3.51963100	0.62626500
418.87	3.50817600	0.61591400
420.29	3.49692500	0.60606100
421.72	3.48588400	0.59667500
423.16	3.47505800	0.58772500
424.61	3.46445000	0.57918400
426.07	3.45406100	0.57102300
427.54	3.44389300	0.56321900
429.01	3.43394400	0.55574800
430.50	3.42421500	0.54858800
432.00	3.41470400	0.54171600
433.51	3.40540800	0.53511500
435.04	3.39632500	0.52876400
436.57	3.38745200	0.52264700
438.11	3.37878500	0.51674500
439.66	3.37032100	0.51104300
441.23	3.36205500	0.50552500
442.80	3.35398400	0.50017700
444.39	3.34610100	0.49498300
445.99	3.33840200	0.48993000
447.60	3.33088000	0.48500400
449.22	3.32353000	0.48019100
450.86	3.31634300	0.47547700
452.50	3.30931000	0.47085000
454.16	3.30242300	0.46629400
455.83	3.29566800	0.46179800
457.51	3.28903100	0.45734500
459.20	3.28249000	0.45292300
460.91	3.27557800	0.44864300
462.63	3.26892500	0.44431900
464.36	3.26235100	0.43997400
466.11	3.25562100	0.43567600
467.87	3.24855900	0.43151900
469.64	3.24087000	0.42781200
471.43	3.23216600	0.42559500
473.23	3.22366500	0.42834200
475.04	3.22841500	0.43534100
476.87	3.23551200	0.41896400
478.71	3.22459000	0.40592800
480.56	3.21347800	0.40031500
482.43	3.20408500	0.39707000
484.32	3.19587800	0.39468700
486.22	3.18846500	0.39269600
488.13	3.18162000	0.39091900
490.06	3.17508300	0.38927800
492.00	3.16864600	0.38773700
493.96	3.16293100	0.38627100
495.94	3.15746500	0.38486500
497.93	3.15222100	0.38350900
499.94	3.14718100	0.38219600
501.96	3.14232900	0.38092400
504.00	3.13765200	0.37968600
506.06	3.13314100	0.37848100
508.14	3.12878800	0.37730500
510.23	3.12458500	0.37615500
512.34	3.12052700	0.37503000
514.46	3.11660900	0.37392600
516.60	3.11282600	0.37284200
518.77	3.10917400	0.37177600
520.95	3.10565000	0.37072400
523.14	3.10225100	0.36968700
525.36	3.09897300	0.36866100
527.60	3.09581500	0.36764500
529.85	3.09277400	0.36663600
532.13	3.08984800	0.36563300
534.42	3.08703400	0.36463500
536.73	3.08433200	0.36363900
539.07	3.08173900	0.36264300
541.42	3.07925500	0.36164600
543.79	3.07687700	0.36064500
546.19	3.07460400	0.35964000
548.61	3.07243500	0.35862700
551.05	3.07036900	0.35760600
553.51	3.06840600	0.35657400
555.99	3.06654300	0.35552900
558.49	3.06478000	0.35447000
561.02	3.06311700	0.35339400
563.57	3.06155300	0.35230000
566.14	3.06008600	0.35118500
568.74	3.05871600	0.35004700
571.36	3.05744300	0.34888300
574.01	3.05626600	0.34769300
576.68	3.05518400	0.34647300
579.37	3.05419800	0.34522100
582.09	3.05330600	0.34393500
584.84	3.05250800	0.34261200
587.61	3.05180400	0.34124900
590.41	3.05119400	0.33984400
593.23	3.05067700	0.33839300
596.08	3.05025200	0.33689500
598.96	3.04992000	0.33534500
601.87	3.04968100	0.33374000
604.81	3.04953400	0.33207800
607.77	3.04947800	0.33035500
610.76	3.04951500	0.32856600
613.79	3.04964200	0.32670800
616.84	3.04986100	0.32477700
619.93	3.05017100	0.32276800
623.04	3.05057200	0.32067700
626.19	3.05106300	0.31849900
629.37	3.05164400	0.31622800
632.58	3.05231600	0.31385900
635.82	3.05307700	0.31138600
639.10	3.05392600	0.30880300
642.41	3.05486500	0.30610300
645.76	3.05589200	0.30327700
649.14	3.05700500	0.30031900
652.55	3.05820500	0.29722000
656.01	3.05949100	0.29397000
659.50	3.06086000	0.29055900
663.02	3.06231200	0.28697600
666.59	3.06384400	0.28320900
670.19	3.06545400	0.27924300
673.83	3.06714000	0.27506500
677.51	3.06889700	0.27065600
681.24	3.07072200	0.26599900
685.00	3.07214300	0.26114300
688.81	3.07405300	0.25592800
692.65	3.07600400	0.25039200
696.55	3.07781500	0.24453300
700.48	3.07979300	0.23826000
704.46	3.08175900	0.23155800
708.49	3.08368100	0.22437600
712.56	3.08551800	0.21665500
716.68	3.08720800	0.20832400
720.84	3.08866000	0.19929900
725.06	3.08973600	0.18948300
729.32	3.09021200	0.17876900
733.64	3.08970400	0.16707000
738.01	3.08751400	0.15443800
742.43	3.08233000	0.14155900
746.90	3.07232700	0.13200700
751.43	3.06529200	0.13813200
756.01	3.09142700	0.12922600
760.65	3.08405900	0.08988300
765.34	3.06204100	0.07242500
770.09	3.04357100	0.06478800
774.91	3.02854000	0.06062800
779.78	3.01585000	0.05795600
784.72	3.00478400	0.05603800
789.71	2.99490100	0.05455000
794.78	2.98592100	0.05333000
799.90	2.97765400	0.05229000
805.10	2.96996500	0.05137600
810.36	2.96275900	0.05055500
815.69	2.95596300	0.04980400
821.09	2.94914500	0.04907700
826.57	2.94300900	0.04842600
832.12	2.93699700	0.04780400
837.74	2.93138300	0.04722000
843.44	2.92553700	0.04664000
849.21	2.92035900	0.04610600
855.07	2.91535800	0.04558900
861.01	2.91051900	0.04508900
867.03	2.90582900	0.04460300
873.14	2.90127800	0.04412900
879.33	2.89685500	0.04366800
885.61	2.89255300	0.04321700
891.98	2.88836300	0.04277500
898.44	2.88427800	0.04234200
905.00	2.88029300	0.04191700
911.66	2.87640300	0.04150000
918.41	2.87260100	0.04109000
925.26	2.86888400	0.04068700
932.22	2.86524700	0.04029000
939.28	2.86168700	0.03989800
946.45	2.85820100	0.03951300
953.73	2.85478400	0.03913200
961.13	2.85143400	0.03875700
968.63	2.84814800	0.03838600
976.26	2.84492500	0.03802000
984.01	2.84176000	0.03765900
991.88	2.83865300	0.03730100
999.88	2.83560100	0.03694800
1008.01	2.83260300	0.03659900
1016.27	2.82965600	0.03625300
1024.67	2.82675900	0.03591100
1033.21	2.82391000	0.03557300
1041.89	2.82110800	0.03523800
1050.72	2.81835100	0.03490600
1059.70	2.81563800	0.03457800
1068.84	2.81296800	0.03425200
1078.13	2.81034000	0.03393000
1087.59	2.80775200	0.03361100
1097.21	2.80520400	0.03329500
1107.01	2.80269500	0.03298100
1116.98	2.80022300	0.03267000
1127.14	2.79778700	0.03236200
