; From SOPRA S.A. http://www.sopra-sa.com/indices.htm
; Filename    Symbol               Range (nm)     Description
; ZNCDTE7     Zn0.3Cd0.7Te        229     1127    Zinc Cadmium Telluride (70% Cd)
; lambda/nm       n         k
229.60	1.98232200	2.57977900
230.03	2.00313700	2.58376300
230.46	2.02433200	2.58722800
230.88	2.04589200	2.59014300
231.32	2.06779500	2.59247700
231.75	2.09002300	2.59419700
232.18	2.11254800	2.59527300
232.62	2.13534400	2.59567600
233.05	2.15837900	2.59537700
233.49	2.18162100	2.59434700
233.93	2.20503100	2.59256300
234.38	2.22857100	2.59000000
234.82	2.25219500	2.58663800
235.27	2.27586200	2.58245900
235.71	2.29952100	2.57744800
236.16	2.32312500	2.57159300
236.61	2.34661800	2.56488900
237.07	2.36995100	2.55733000
237.52	2.39306700	2.54892000
237.98	2.41591300	2.53966400
238.43	2.43843000	2.52957200
238.89	2.46056700	2.51866000
239.35	2.48226900	2.50694800
239.82	2.50348300	2.49446100
240.28	2.52415700	2.48122900
240.75	2.54424600	2.46728500
241.22	2.56370200	2.45266800
241.69	2.58248400	2.43742100
242.16	2.60055400	2.42158800
242.63	2.61787700	2.40521800
243.11	2.63442400	2.38836200
243.59	2.65017000	2.37107400
244.07	2.66509500	2.35340700
244.55	2.67918200	2.33541800
245.03	2.69242300	2.31716300
245.52	2.70480900	2.29869800
246.00	2.71634100	2.28007800
246.49	2.72702200	2.26135800
246.98	2.73666100	2.24285100
247.48	2.74566300	2.22409200
247.97	2.75384900	2.20538400
248.47	2.76123600	2.18677800
248.97	2.76784700	2.16831500
249.47	2.77370600	2.15003800
249.97	2.77883900	2.13198400
250.48	2.78327500	2.11419000
250.98	2.78704500	2.09668500
251.49	2.79017800	2.07950000
252.00	2.79270800	2.06266000
252.52	2.79466700	2.04619000
253.03	2.79608900	2.03010600
253.55	2.79700600	2.01442800
254.07	2.79745200	1.99916900
254.59	2.79745900	1.98434100
255.11	2.79706000	1.96995400
255.64	2.79628500	1.95601500
256.17	2.79516600	1.94253000
256.70	2.79373100	1.92949900
257.23	2.79201100	1.91692800
257.77	2.79003200	1.90481200
258.30	2.78782100	1.89315400
258.84	2.78540300	1.88194800
259.38	2.78280200	1.87119300
259.93	2.78004100	1.86088100
260.47	2.77714300	1.85100900
261.02	2.77412700	1.84156800
261.57	2.77101300	1.83255300
262.13	2.76781900	1.82395500
262.68	2.76456200	1.81576600
263.24	2.76125900	1.80797900
263.80	2.75792500	1.80058300
264.36	2.75457300	1.79357100
264.93	2.75121700	1.78693400
265.49	2.74786900	1.78066300
266.06	2.74454000	1.77474700
266.63	2.74124100	1.76917900
267.21	2.73798200	1.76394900
267.79	2.73477200	1.75904900
268.37	2.73161900	1.75447000
268.95	2.72853100	1.75020300
269.53	2.72551500	1.74624000
270.12	2.72257800	1.74257400
270.71	2.71972500	1.73919600
271.30	2.71696400	1.73609900
271.90	2.71429800	1.73327600
272.49	2.71173300	1.73071900
273.10	2.70927200	1.72842300
273.70	2.70692100	1.72638100
274.30	2.70468300	1.72458700
274.91	2.70256200	1.72303500
275.52	2.70056000	1.72172100
276.14	2.69868200	1.72064000
276.75	2.69693000	1.71978700
277.37	2.69530700	1.71915800
277.99	2.69381700	1.71875000
278.62	2.69246100	1.71856000
279.25	2.69124200	1.71858500
279.88	2.69016400	1.71882200
280.51	2.68923000	1.71927100
281.15	2.68844100	1.71992900
281.78	2.68780200	1.72079600
282.43	2.68731500	1.72187200
283.07	2.68698500	1.72315800
283.72	2.68681600	1.72465300
284.37	2.68681000	1.72636100
285.02	2.68697500	1.72828300
285.68	2.68731400	1.73042100
286.34	2.68783400	1.73278200
287.00	2.68854300	1.73536700
287.67	2.68944900	1.73818500
288.34	2.69056100	1.74124000
289.01	2.69189000	1.74454000
289.69	2.69344900	1.74809300
290.36	2.69525500	1.75191000
291.05	2.69732400	1.75599800
291.73	2.69967800	1.76037000
292.42	2.70234300	1.76503500
293.11	2.70534800	1.77000600
293.80	2.70872900	1.77529100
294.50	2.71252600	1.78090100
295.20	2.71678700	1.78683900
295.91	2.72156800	1.79310900
296.62	2.72693000	1.79970400
297.33	2.73294400	1.80661500
298.04	2.73968800	1.81381500
298.76	2.74724400	1.82127000
299.48	2.75570100	1.82892600
300.21	2.76514600	1.83671200
300.93	2.77566800	1.84453600
301.67	2.78734600	1.85228500
302.40	2.80025100	1.85982000
303.14	2.81443400	1.86698100
303.89	2.82992400	1.87358700
304.63	2.84672000	1.87943900
305.38	2.86478500	1.88432300
306.14	2.88404400	1.88802300
306.89	2.90437500	1.89032500
307.66	2.92561200	1.89102500
308.42	2.94754400	1.88994700
309.19	2.96991600	1.88694900
309.96	2.99244700	1.88193500
310.74	3.01482800	1.87486400
311.52	3.03674100	1.86575500
312.31	3.05787600	1.85468800
313.09	3.07793900	1.84180600
313.89	3.09667200	1.82730200
314.68	3.11386200	1.81141500
315.48	3.12934700	1.79441200
316.29	3.14302200	1.77658100
317.10	3.15483700	1.75821200
317.91	3.16441400	1.74035900
318.73	3.17257000	1.72175900
319.55	3.17901100	1.70339800
320.38	3.18385600	1.68548300
321.21	3.18724200	1.66818200
322.04	3.18931900	1.65163500
322.88	3.19024500	1.63594600
323.72	3.19017300	1.62119200
324.57	3.18925200	1.60742400
325.42	3.18762400	1.59467400
326.28	3.18541600	1.58295500
327.14	3.18274900	1.57226700
328.00	3.17972600	1.56260200
328.87	3.17644200	1.55394300
329.75	3.17298000	1.54627200
330.63	3.16941000	1.53956900
331.51	3.16579800	1.53381400
332.40	3.16219800	1.52899000
333.29	3.15866200	1.52508500
334.19	3.15523500	1.52209100
335.10	3.15196300	1.52000500
336.00	3.14889000	1.51883400
336.92	3.14606600	1.51858800
337.83	3.14354400	1.51928500
338.76	3.14138600	1.52094900
339.69	3.13966400	1.52360800
340.62	3.13846600	1.52729100
341.56	3.13789500	1.53202800
342.50	3.13807300	1.53784400
343.45	3.13914200	1.54475600
344.40	3.14126700	1.55276400
345.36	3.14463200	1.56185000
346.33	3.14944200	1.57196500
347.30	3.15591800	1.58302900
348.27	3.16428700	1.59491700
349.25	3.17478300	1.60745700
350.24	3.18762800	1.62042700
351.23	3.20302700	1.63354600
352.23	3.22115000	1.64648200
353.23	3.24212500	1.65885100
354.24	3.26601400	1.67022300
355.26	3.29280900	1.68013300
356.28	3.32241700	1.68809900
357.31	3.35465200	1.69363600
358.34	3.38923300	1.69627600
359.38	3.42578100	1.69559300
360.42	3.46383200	1.69122400
361.47	3.50284400	1.68288900
362.53	3.54222200	1.67041300
363.59	3.58133600	1.65373400
364.66	3.61955400	1.63291300
365.74	3.65626700	1.60812700
366.82	3.69091400	1.57966600
367.91	3.72300800	1.54791600
369.00	3.75215600	1.51333000
370.11	3.77806400	1.47641500
371.21	3.80054100	1.43770000
372.33	3.81950200	1.39771100
373.45	3.83495100	1.35695500
374.58	3.84697500	1.31589700
375.71	3.85476400	1.27481600
376.85	3.86045600	1.23436400
378.00	3.86330800	1.19469600
379.16	3.86357700	1.15605700
380.32	3.86152700	1.11863700
381.49	3.85742100	1.08257600
382.67	3.85151600	1.04797000
383.86	3.84405600	1.01487600
385.05	3.83526500	0.98332100
386.25	3.82535200	0.95330700
387.45	3.81450500	0.92481300
388.67	3.80289300	0.89780500
389.89	3.79066700	0.87223700
391.12	3.77795800	0.84805200
392.36	3.76488200	0.82519100
393.60	3.75153900	0.80359000
394.86	3.73801800	0.78318400
396.12	3.72439300	0.76390700
397.39	3.71072600	0.74569300
398.67	3.69707300	0.72848000
399.95	3.68348000	0.71220700
401.25	3.66998400	0.69681400
402.55	3.65661900	0.68224500
403.86	3.64341000	0.66844800
405.18	3.63037900	0.65537000
406.51	3.61754400	0.64296600
407.85	3.60491800	0.63119000
409.19	3.59251400	0.61999900
410.55	3.58033800	0.60935400
411.91	3.56839800	0.59921800
413.28	3.55669600	0.58955600
414.67	3.54523600	0.58033500
416.06	3.53401800	0.57152300
417.46	3.52304200	0.56309300
418.87	3.51230800	0.55501700
420.29	3.50181200	0.54726900
421.72	3.49155100	0.53982400
423.16	3.48152200	0.53266100
424.61	3.47172000	0.52575600
426.07	3.46213900	0.51908900
427.54	3.45277400	0.51264100
429.01	3.44361600	0.50639100
430.50	3.43465900	0.50032100
432.00	3.42589100	0.49441300
433.51	3.41730200	0.48865000
435.04	3.40887800	0.48301500
436.57	3.40060200	0.47749100
438.11	3.39200600	0.47219500
439.66	3.38374600	0.46692200
441.23	3.37565700	0.46169800
442.80	3.36753600	0.45657200
444.39	3.35927900	0.45158900
445.99	3.35072300	0.44687900
447.60	3.34163000	0.44281100
449.22	3.33184300	0.44047100
450.86	3.32312200	0.44267100
452.50	3.32556700	0.44743600
454.16	3.33160200	0.43384700
455.83	3.32190300	0.41937500
457.51	3.31000700	0.41202000
459.20	3.29941700	0.40756900
460.91	3.28998800	0.40426400
462.63	3.28139000	0.40149800
464.36	3.27340400	0.39903100
466.11	3.26589100	0.39675500
467.87	3.25862900	0.39461300
469.64	3.25183800	0.39258000
471.43	3.24495100	0.39063400
473.23	3.23872000	0.38876100
475.04	3.23271300	0.38695100
476.87	3.22691300	0.38519700
478.71	3.22130700	0.38349300
480.56	3.21588300	0.38183500
482.43	3.21063200	0.38021900
484.32	3.20554800	0.37864200
486.22	3.20062200	0.37710000
488.13	3.19585000	0.37559000
490.06	3.19122600	0.37410900
492.00	3.18674600	0.37265600
493.96	3.18240500	0.37122600
495.94	3.17820000	0.36981900
497.93	3.17412800	0.36843000
499.94	3.17018600	0.36705900
501.96	3.16637000	0.36570300
504.00	3.16267900	0.36435900
506.06	3.15910900	0.36302600
508.14	3.15565900	0.36170100
510.23	3.15232700	0.36038200
512.34	3.14911000	0.35906700
514.46	3.14600700	0.35775400
516.60	3.14301600	0.35644100
518.77	3.14013600	0.35512700
520.95	3.13736500	0.35380700
523.14	3.13470200	0.35248200
525.36	3.13214500	0.35114800
527.60	3.12969300	0.34980400
529.85	3.12734500	0.34844700
532.13	3.12510000	0.34707500
534.42	3.12295700	0.34568600
536.73	3.12091400	0.34427800
539.07	3.11897200	0.34284900
541.42	3.11712800	0.34139500
543.79	3.11538300	0.33991600
546.19	3.11373500	0.33840700
548.61	3.11218300	0.33686800
551.05	3.11072800	0.33529400
553.51	3.10936700	0.33368500
555.99	3.10810100	0.33203600
558.49	3.10692900	0.33034500
561.02	3.10585000	0.32860800
563.57	3.10486300	0.32682400
566.14	3.10396900	0.32498800
568.74	3.10316600	0.32309800
571.36	3.10245300	0.32114900
574.01	3.10183100	0.31913800
576.68	3.10129900	0.31706100
579.37	3.10085600	0.31491500
582.09	3.10050100	0.31269300
584.84	3.10023400	0.31039300
587.61	3.10005400	0.30801000
590.41	3.09996000	0.30553700
593.23	3.09995200	0.30297000
596.08	3.10002900	0.30030200
598.96	3.10018900	0.29752800
601.87	3.10043200	0.29464000
604.81	3.10075700	0.29163200
607.77	3.10116200	0.28849500
610.76	3.10164500	0.28522100
613.79	3.10220500	0.28180100
616.84	3.10283900	0.27822300
619.93	3.10354500	0.27447900
623.04	3.10432000	0.27055400
626.19	3.10469800	0.26650700
629.37	3.10557400	0.26218500
632.58	3.10650300	0.25763900
635.82	3.10731300	0.25287600
639.10	3.10831200	0.24782400
642.41	3.10933400	0.24248300
645.76	3.11036500	0.23682800
649.14	3.11138400	0.23082600
652.55	3.11236800	0.22444100
656.01	3.11328100	0.21763200
659.50	3.11407600	0.21035000
663.02	3.11468700	0.20253900
666.59	3.11501600	0.19413800
670.19	3.11491500	0.18508000
673.83	3.11415100	0.17531400
677.51	3.11234000	0.16484800
681.24	3.10882600	0.15391100
685.00	3.10254200	0.14352000
688.81	3.09277000	0.13746300
692.65	3.08837100	0.14466700
696.55	3.11146300	0.13897700
700.48	3.11131500	0.10296100
704.46	3.09234000	0.08262300
708.49	3.07439800	0.07311600
712.56	3.05938400	0.06792200
716.68	3.04661200	0.06463200
720.84	3.03544900	0.06230600
725.06	3.02546900	0.06052800
729.32	3.01639300	0.05908900
733.64	3.00802900	0.05787600
738.01	3.00024200	0.05681900
742.43	2.99293500	0.05587600
746.90	2.98603300	0.05502000
751.43	2.97948000	0.05423000
756.01	2.97323000	0.05349400
760.65	2.96724800	0.05280100
765.34	2.96150500	0.05214400
770.09	2.95597600	0.05151700
774.91	2.95049200	0.05090900
779.78	2.94534000	0.05033100
784.72	2.93989300	0.04975200
789.71	2.93507000	0.04921300
794.78	2.93038300	0.04868900
799.90	2.92544400	0.04814800
805.10	2.92100200	0.04765000
810.36	2.91667000	0.04716300
815.69	2.91244200	0.04668600
821.09	2.90831200	0.04621900
826.57	2.90427400	0.04576100
832.12	2.90032300	0.04531000
837.74	2.89645600	0.04486800
843.44	2.89266900	0.04443300
849.21	2.88895700	0.04400400
855.07	2.88531700	0.04358200
861.01	2.88174600	0.04316600
867.03	2.87824100	0.04275600
873.14	2.87480000	0.04235200
879.33	2.87142000	0.04195300
885.61	2.86809900	0.04155900
891.98	2.86483500	0.04116900
898.44	2.86162500	0.04078500
905.00	2.85846800	0.04040500
911.66	2.85536300	0.04002900
918.41	2.85230700	0.03965800
925.26	2.84929900	0.03929100
932.22	2.84633800	0.03892800
939.28	2.84342200	0.03856800
946.45	2.84055000	0.03821200
953.73	2.83772000	0.03786000
961.13	2.83493300	0.03751200
968.63	2.83218500	0.03716600
976.26	2.82947700	0.03682500
984.01	2.82680800	0.03648600
991.88	2.82417600	0.03615000
999.88	2.82158100	0.03581800
1008.01	2.81902200	0.03548900
1016.27	2.81649800	0.03516200
1024.67	2.81400800	0.03483900
1033.21	2.81155100	0.03451800
1041.89	2.80912800	0.03420000
1050.72	2.80673600	0.03388500
1059.70	2.80437600	0.03357200
1068.84	2.80204700	0.03326200
1078.13	2.79974800	0.03295400
1087.59	2.79747900	0.03264900
1097.21	2.79523800	0.03234700
1107.01	2.79302700	0.03204600
1116.98	2.79084400	0.03174800
1127.14	2.78868800	0.03145200
