; From SOPRA S.A. http://www.sopra-sa.com/indices.htm
; Filename    Symbol               Range (nm)     Description
; ZNCDTE10    CdTe                229     1127    Zinc Cadmium Telluride (100% Cd)
; lambda/nm       n         k
229.60	1.84348300	2.42327400
230.03	1.86227300	2.42900300
230.46	1.88148500	2.43432500
230.88	1.90111200	2.43920900
231.32	1.92114100	2.44362200
231.75	1.94156300	2.44753300
232.18	1.96235900	2.45091000
232.62	1.98351500	2.45371900
233.05	2.00500700	2.45592900
233.49	2.02681300	2.45750800
233.93	2.04890300	2.45842400
234.38	2.07125000	2.45864700
234.82	2.09381700	2.45814800
235.27	2.11657100	2.45690100
235.71	2.13946900	2.45488000
236.16	2.16247000	2.45206300
236.61	2.18552600	2.44843000
237.07	2.20859200	2.44396600
237.52	2.23161400	2.43865900
237.98	2.25454100	2.43249800
238.43	2.27731600	2.42548100
238.89	2.29988700	2.41760800
239.35	2.32219400	2.40888400
239.82	2.34418300	2.39931900
240.28	2.36579500	2.38892900
240.75	2.38697700	2.37773300
241.22	2.40767400	2.36575700
241.69	2.42783200	2.35303200
242.16	2.44740400	2.33959200
242.63	2.46634100	2.32547600
243.11	2.48460300	2.31072700
243.59	2.50214800	2.29539400
244.07	2.51894400	2.27952400
244.55	2.53495900	2.26317200
245.03	2.55016900	2.24639200
245.52	2.56455200	2.22924000
246.00	2.57809600	2.21177300
246.49	2.59078800	2.19404900
246.98	2.60262700	2.17612400
247.48	2.61360800	2.15805700
247.97	2.62374000	2.13990200
248.47	2.63302900	2.12171300
248.97	2.64149000	2.10354200
249.47	2.64913900	2.08543900
249.97	2.65599700	2.06745000
250.48	2.66208600	2.04961900
250.98	2.66743300	2.03198600
251.49	2.67206500	2.01459100
252.00	2.67601300	1.99746600
252.52	2.67909000	1.98091800
253.03	2.68176100	1.96442900
253.55	2.68384500	1.94829500
254.07	2.68537500	1.93253800
254.59	2.68638500	1.91717600
255.11	2.68690900	1.90222500
255.64	2.68698100	1.88769800
256.17	2.68663400	1.87360500
256.70	2.68590000	1.85995400
257.23	2.68481000	1.84675200
257.77	2.68339600	1.83400000
258.30	2.68168600	1.82170200
258.84	2.67970900	1.80985700
259.38	2.67749200	1.79846600
259.93	2.67506200	1.78752400
260.47	2.67244300	1.77702800
261.02	2.66965900	1.76697200
261.57	2.66673200	1.75735100
262.13	2.66368200	1.74815800
262.68	2.66053100	1.73938600
263.24	2.65729700	1.73102700
263.80	2.65399600	1.72307200
264.36	2.65064600	1.71551200
264.93	2.64726200	1.70833900
265.49	2.64385800	1.70154400
266.06	2.64044700	1.69511600
266.63	2.63704200	1.68904600
267.21	2.63365300	1.68332500
267.79	2.63029300	1.67794300
268.37	2.62697000	1.67289100
268.95	2.62369300	1.66816000
269.53	2.62047100	1.66374000
270.12	2.61731200	1.65962300
270.71	2.61422200	1.65579800
271.30	2.61120800	1.65225900
271.90	2.60827500	1.64899600
272.49	2.60543000	1.64600100
273.10	2.60267700	1.64326800
273.70	2.60002000	1.64078700
274.30	2.59746400	1.63855100
274.91	2.59501200	1.63655500
275.52	2.59266900	1.63479000
276.14	2.59043600	1.63325100
276.75	2.58831700	1.63193200
277.37	2.58631400	1.63082700
277.99	2.58443100	1.62993100
278.62	2.58266900	1.62923800
279.25	2.58102900	1.62874400
279.88	2.57951500	1.62844400
280.51	2.57812700	1.62833500
281.15	2.57686900	1.62841300
281.78	2.57574000	1.62867500
282.43	2.57474400	1.62911700
283.07	2.57388200	1.62973800
283.72	2.57315400	1.63053500
284.37	2.57256400	1.63150600
285.02	2.57211300	1.63265100
285.68	2.57180300	1.63396800
286.34	2.57163600	1.63545700
287.00	2.57161400	1.63711900
287.67	2.57174100	1.63895300
288.34	2.57201800	1.64096200
289.01	2.57245000	1.64314700
289.69	2.57304000	1.64551000
290.36	2.57379200	1.64805600
291.05	2.57471200	1.65078600
291.73	2.57580600	1.65370700
292.42	2.57708100	1.65682300
293.11	2.57854500	1.66014100
293.80	2.58020800	1.66366700
294.50	2.58208100	1.66741000
295.20	2.58417900	1.67137700
295.91	2.58651700	1.67557700
296.62	2.58911500	1.68002100
297.33	2.59199500	1.68471600
298.04	2.59518400	1.68967300
298.76	2.59871400	1.69489800
299.48	2.60262000	1.70039800
300.21	2.60694300	1.70617700
300.93	2.61173200	1.71223400
301.67	2.61704000	1.71856300
302.40	2.62292500	1.72515000
303.14	2.62945100	1.73197300
303.89	2.63668600	1.73899900
304.63	2.64470000	1.74618300
305.38	2.65356400	1.75346400
306.14	2.66334700	1.76076600
306.89	2.67411200	1.76799600
307.66	2.68591300	1.77504300
308.42	2.69879200	1.78178100
309.19	2.71277100	1.78806500
309.96	2.72785300	1.79374000
310.74	2.74401300	1.79863800
311.52	2.76119700	1.80258700
312.31	2.77932000	1.80541700
313.09	2.79825900	1.80696300
313.89	2.81786200	1.80707800
314.68	2.83794300	1.80563500
315.48	2.85828700	1.80254000
316.29	2.87866000	1.79773700
317.10	2.89881300	1.79121300
317.91	2.91849800	1.78299700
318.73	2.93746900	1.77317100
319.55	2.95550200	1.76185400
320.38	2.97239600	1.74920900
321.21	2.98798800	1.73542600
322.04	3.00215100	1.72072100
322.88	3.01480300	1.70532000
323.72	3.02590300	1.68945200
324.57	3.03509300	1.67416300
325.42	3.04312300	1.65804400
326.28	3.04969900	1.64208700
327.14	3.05490700	1.62646100
328.00	3.05885300	1.61131100
328.87	3.06165100	1.59675600
329.75	3.06342300	1.58289300
330.63	3.06429200	1.56979600
331.51	3.06437800	1.55751800
332.40	3.06379600	1.54609500
333.29	3.06265300	1.53555200
334.19	3.06104900	1.52589900
335.10	3.05907700	1.51713900
336.00	3.05681700	1.50926900
336.92	3.05434400	1.50228500
337.83	3.05172500	1.49617600
338.76	3.04902000	1.49093700
339.69	3.04628300	1.48656100
340.62	3.04356700	1.48304500
341.56	3.04092000	1.48038900
342.50	3.03839100	1.47859700
343.45	3.03603000	1.47768000
344.40	3.03389200	1.47765100
345.36	3.03203700	1.47852800
346.33	3.03053300	1.48033100
347.30	3.02945800	1.48308200
348.27	3.02890300	1.48680200
349.25	3.02897300	1.49150800
350.24	3.02978800	1.49721200
351.23	3.03148400	1.50391200
352.23	3.03421300	1.51159200
353.23	3.03814100	1.52021600
354.24	3.04344800	1.52972100
355.26	3.05032000	1.54001300
356.28	3.05894800	1.55096600
357.31	3.06951800	1.56241100
358.34	3.08220700	1.57414000
359.38	3.09716900	1.58590400
360.42	3.11453000	1.59740900
361.47	3.13437300	1.60832800
362.53	3.15673500	1.61830000
363.59	3.18159100	1.62694300
364.66	3.20885000	1.63386000
365.74	3.23835200	1.63865800
366.82	3.26985900	1.64095900
367.91	3.30306300	1.64041800
369.00	3.33758800	1.63673700
370.11	3.37300100	1.62968300
371.21	3.40882200	1.61910200
372.33	3.44454600	1.60492300
373.45	3.47965700	1.58716800
374.58	3.51365600	1.56595300
375.71	3.54606700	1.54148100
376.85	3.57647200	1.51403200
378.00	3.60423500	1.48399000
379.16	3.62963000	1.45166100
380.32	3.65217300	1.41750800
381.49	3.67101400	1.38177100
382.67	3.68757200	1.34526000
383.86	3.70112600	1.30818100
385.05	3.71175600	1.27090700
386.25	3.71958900	1.23377100
387.45	3.72479000	1.19706500
388.67	3.72755100	1.16103300
389.89	3.72807600	1.12587600
391.12	3.72658200	1.09175300
392.36	3.72328100	1.05878400
393.60	3.71838300	1.02705200
394.86	3.71208900	0.99661400
396.12	3.70458600	0.96750000
397.39	3.69604900	0.93971600
398.67	3.68663700	0.91325400
399.95	3.67649600	0.88809200
401.25	3.66575600	0.86419800
402.55	3.65453200	0.84152900
403.86	3.64292800	0.82004100
405.18	3.63103400	0.79968300
406.51	3.61893000	0.78040400
407.85	3.60668300	0.76215000
409.19	3.59435500	0.74486800
410.55	3.58199700	0.72850500
411.91	3.56965200	0.71301100
413.28	3.55735800	0.69833400
414.67	3.54514900	0.68442900
416.06	3.53305000	0.67124800
417.46	3.52108400	0.65874800
418.87	3.50927000	0.64688700
420.29	3.49762400	0.63562700
421.72	3.48615900	0.62492900
423.16	3.47488400	0.61475900
424.61	3.46380800	0.60508300
426.07	3.45293600	0.59587200
427.54	3.44227400	0.58709400
429.01	3.43182500	0.57872300
430.50	3.42159000	0.57073300
432.00	3.41157200	0.56309900
433.51	3.40176900	0.55579900
435.04	3.39218100	0.54881000
436.57	3.38280800	0.54211300
438.11	3.37364800	0.53568900
439.66	3.36469800	0.52951800
441.23	3.35595600	0.52358400
442.80	3.34742000	0.51787100
444.39	3.33908500	0.51236400
445.99	3.33094800	0.50704600
447.60	3.32300700	0.50190500
449.22	3.31525600	0.49692700
450.86	3.30769200	0.49209800
452.50	3.30031000	0.48740600
454.16	3.29310600	0.48283900
455.83	3.28607500	0.47838400
457.51	3.27921000	0.47403000
459.20	3.27250700	0.46976400
460.91	3.26595800	0.46557500
462.63	3.25955700	0.46145100
464.36	3.25329300	0.45737800
466.11	3.24715800	0.45334500
467.87	3.24113800	0.44933800
469.64	3.23521600	0.44534300
471.43	3.22937100	0.44134600
473.23	3.22357100	0.43733300
475.04	3.21727000	0.43344400
476.87	3.21113300	0.42947800
478.71	3.20491300	0.42549300
480.56	3.19822300	0.42168100
482.43	3.19064400	0.41854500
484.32	3.18181100	0.41803400
486.22	3.17713500	0.42561200
488.13	3.19142600	0.42170600
490.06	3.18520600	0.40316800
492.00	3.17350600	0.39594200
493.96	3.16384300	0.39252800
495.94	3.15566200	0.39029300
497.93	3.14841900	0.38853000
499.94	3.14181500	0.38700100
501.96	3.13556000	0.38561000
504.00	3.12943500	0.38431900
506.06	3.12403000	0.38309500
508.14	3.11887900	0.38192500
510.23	3.11395400	0.38079900
512.34	3.10923200	0.37971300
514.46	3.10469700	0.37866100
516.60	3.10033700	0.37764000
518.77	3.09614000	0.37664600
520.95	3.09209800	0.37567800
523.14	3.08820400	0.37473300
525.36	3.08445200	0.37380800
527.60	3.08083700	0.37290200
529.85	3.07735500	0.37201200
532.13	3.07400100	0.37113700
534.42	3.07077100	0.37027500
536.73	3.06766400	0.36942300
539.07	3.06467600	0.36858100
541.42	3.06180500	0.36774700
543.79	3.05904800	0.36691800
546.19	3.05640400	0.36609300
548.61	3.05387000	0.36527100
551.05	3.05144500	0.36444900
553.51	3.04912800	0.36362600
555.99	3.04691700	0.36280100
558.49	3.04481000	0.36197100
561.02	3.04280700	0.36113400
563.57	3.04090700	0.36029000
566.14	3.03910800	0.35943600
568.74	3.03740900	0.35857000
571.36	3.03581000	0.35769100
574.01	3.03431100	0.35679600
576.68	3.03290900	0.35588400
579.37	3.03160600	0.35495300
582.09	3.03039900	0.35400100
584.84	3.02928900	0.35302500
587.61	3.02827500	0.35202400
590.41	3.02735700	0.35099600
593.23	3.02653400	0.34993700
596.08	3.02580600	0.34884700
598.96	3.02517300	0.34772200
601.87	3.02463400	0.34656000
604.81	3.02418900	0.34535800
607.77	3.02383800	0.34411400
610.76	3.02358100	0.34282500
613.79	3.02341700	0.34148800
616.84	3.02334700	0.34010000
619.93	3.02337100	0.33865800
623.04	3.02348700	0.33715800
626.19	3.02369700	0.33559700
629.37	3.02400100	0.33397200
632.58	3.02439700	0.33227800
635.82	3.02488700	0.33051200
639.10	3.02547000	0.32866800
642.41	3.02614500	0.32674400
645.76	3.02691500	0.32473200
649.14	3.02777700	0.32263000
652.55	3.02873200	0.32043100
656.01	3.02977900	0.31812800
659.50	3.03092000	0.31571700
663.02	3.03215300	0.31319100
666.59	3.03347800	0.31054100
670.19	3.03489500	0.30776100
673.83	3.03640400	0.30484200
677.51	3.03800300	0.30177500
681.24	3.03969200	0.29855100
685.00	3.04147100	0.29515700
688.81	3.04333600	0.29158300
692.65	3.04528900	0.28781600
696.55	3.04732500	0.28384100
700.48	3.04944300	0.27964200
704.46	3.05164000	0.27520300
708.49	3.05391200	0.27050100
712.56	3.05625300	0.26551600
716.68	3.05865800	0.26022200
720.84	3.06063700	0.25466400
725.06	3.06310500	0.24866600
729.32	3.06543200	0.24228600
733.64	3.06791400	0.23542500
738.01	3.07037000	0.22805500
742.43	3.07275900	0.22011100
746.90	3.07502400	0.21151500
751.43	3.07707900	0.20217000
756.01	3.07879200	0.19196300
760.65	3.07994700	0.18075800
765.34	3.08016800	0.16841800
770.09	3.07875100	0.15489500
774.91	3.07429300	0.14066700
779.78	3.06438800	0.12901300
784.72	3.05564500	0.13413900
789.71	3.08319500	0.12300400
794.78	3.07124200	0.08279500
799.90	3.04800700	0.06711300
805.10	3.02940100	0.06041500
810.36	3.01439400	0.05675000
815.69	3.00174500	0.05437300
821.09	2.99071600	0.05264900
826.57	2.98049800	0.05126900
832.12	2.97155000	0.05015700
837.74	2.96331600	0.04920300
843.44	2.95566200	0.04836100
849.21	2.94849200	0.04760100
855.07	2.94173400	0.04690500
861.01	2.93517700	0.04625000
867.03	2.92909400	0.04564400
873.14	2.92282600	0.04504900
879.33	2.91728500	0.04450500
885.61	2.91196000	0.04398400
891.98	2.90683200	0.04348200
898.44	2.90188200	0.04299600
905.00	2.89709600	0.04252600
911.66	2.89246200	0.04206800
918.41	2.88796700	0.04162200
925.26	2.88360300	0.04118700
932.22	2.87936100	0.04076100
939.28	2.87523200	0.04034400
946.45	2.87121100	0.03993500
953.73	2.86729000	0.03953400
961.13	2.86346500	0.03913900
968.63	2.85972900	0.03875100
976.26	2.85607900	0.03836900
984.01	2.85251000	0.03799300
991.88	2.84901800	0.03762200
999.88	2.84560000	0.03725600
1008.01	2.84225300	0.03689500
1016.27	2.83897400	0.03653900
1024.67	2.83576000	0.03618700
1033.21	2.83260700	0.03584000
1041.89	2.82951500	0.03549600
1050.72	2.82648000	0.03515600
1059.70	2.82350100	0.03482000
1068.84	2.82057600	0.03448800
1078.13	2.81770200	0.03415900
1087.59	2.81487800	0.03383400
1097.21	2.81210400	0.03351100
1107.01	2.80937600	0.03319200
1116.98	2.80669300	0.03287600
1127.14	2.80405500	0.03256300
