; From SOPRA S.A. http://www.sopra-sa.com/indices.htm
; Filename    Symbol               Range (nm)     Description
; ZNCDTE5     Zn0.5Cd0.5Te        229     1127    Zinc Cadmium Telluride (50% Cd)
; lambda/nm       n         k
229.60	2.07883000	2.67408300
230.03	2.10082900	2.67670300
230.46	2.12316300	2.67873300
230.88	2.14581200	2.68014500
231.32	2.16874700	2.68090600
231.75	2.19194400	2.68099000
232.18	2.21536800	2.68036700
232.62	2.23898900	2.67901300
233.05	2.26276700	2.67690200
233.49	2.28666500	2.67401100
233.93	2.31063800	2.67032200
234.38	2.33464400	2.66581700
234.82	2.35863300	2.66048200
235.27	2.38255800	2.65430800
235.71	2.40636500	2.64728800
236.16	2.43000700	2.63941900
236.61	2.45342400	2.63070300
237.07	2.47656800	2.62114600
237.52	2.49938200	2.61076000
237.98	2.52181200	2.59955900
238.43	2.54380600	2.58756400
238.89	2.56531200	2.57480000
239.35	2.58628200	2.56129500
239.82	2.60666700	2.54708300
240.28	2.62642300	2.53220200
240.75	2.64551000	2.51669200
241.22	2.66388900	2.50059800
241.69	2.68152600	2.48396800
242.16	2.69839400	2.46685100
242.63	2.71446500	2.44930000
243.11	2.72972200	2.43136700
243.59	2.74395800	2.41336500
244.07	2.75753700	2.39483700
244.55	2.77026600	2.37609200
245.03	2.78214400	2.35718600
245.52	2.79317400	2.33817200
246.00	2.80336200	2.31910200
246.49	2.81271800	2.30002800
246.98	2.82125900	2.28099600
247.48	2.82899900	2.26205600
247.97	2.83596100	2.24324800
248.47	2.84216600	2.22461700
248.97	2.84764200	2.20620000
249.47	2.85241500	2.18803200
249.97	2.85651500	2.17014500
250.48	2.85997100	2.15257000
250.98	2.86281500	2.13533100
251.49	2.86507900	2.11845400
252.00	2.86679600	2.10195900
252.52	2.86799700	2.08586300
253.03	2.86871700	2.07018200
253.55	2.86898600	2.05492800
254.07	2.86883700	2.04011200
254.59	2.86830100	2.02574100
255.11	2.86740800	2.01182400
255.64	2.86618800	1.99836200
256.17	2.86467100	1.98535900
256.70	2.86288200	1.97281400
257.23	2.86085000	1.96072900
257.77	2.85859900	1.94910000
258.30	2.85615400	1.93792400
258.84	2.85353800	1.92719800
259.38	2.85077400	1.91691700
259.93	2.84788200	1.90707300
260.47	2.84488200	1.89766300
261.02	2.84179200	1.88867600
261.57	2.83863100	1.88010800
262.13	2.83541500	1.87194900
262.68	2.83216000	1.86419200
263.24	2.82887900	1.85682800
263.80	2.82558700	1.84984900
264.36	2.82229700	1.84324600
264.93	2.81902000	1.83701100
265.49	2.81576700	1.83113400
266.06	2.81254900	1.82560700
266.63	2.80937500	1.82042300
267.21	2.80625400	1.81557200
267.79	2.80319500	1.81104700
268.37	2.80020500	1.80684000
268.95	2.79729100	1.80294200
269.53	2.79446000	1.79934800
270.12	2.79171900	1.79604900
270.71	2.78907200	1.79303900
271.30	2.78652500	1.79031200
271.90	2.78408300	1.78786100
272.49	2.78175200	1.78568100
273.10	2.77953500	1.78376700
273.70	2.77743600	1.78211300
274.30	2.77546000	1.78071500
274.91	2.77361100	1.77957000
275.52	2.77189200	1.77867200
276.14	2.77030800	1.77802000
276.75	2.76886100	1.77761000
277.37	2.76755600	1.77744100
277.99	2.76639600	1.77751000
278.62	2.76538500	1.77781700
279.25	2.76452900	1.77836100
279.88	2.76382900	1.77914300
280.51	2.76329300	1.78016200
281.15	2.76292400	1.78142100
281.78	2.76272900	1.78292100
282.43	2.76271300	1.78466500
283.07	2.76288400	1.78665800
283.72	2.76324900	1.78890300
284.37	2.76381800	1.79140500
285.02	2.76460100	1.79417300
285.68	2.76560900	1.79721100
286.34	2.76685500	1.80053000
287.00	2.76835800	1.80413900
287.67	2.77013400	1.80804700
288.34	2.77220500	1.81226600
289.01	2.77459900	1.81680900
289.69	2.77734400	1.82168600
290.36	2.78047800	1.82691100
291.05	2.78404200	1.83249400
291.73	2.78808700	1.83844300
292.42	2.79267100	1.84476400
293.11	2.79786000	1.85145700
293.80	2.80373000	1.85851200
294.50	2.81036700	1.86591000
295.20	2.81786400	1.87361800
295.91	2.82632100	1.88158500
296.62	2.83584000	1.88973700
297.33	2.84652800	1.89798100
298.04	2.85848000	1.90619300
298.76	2.87178500	1.91422200
299.48	2.88651300	1.92189000
300.21	2.90270600	1.92899000
300.93	2.92037300	1.93529300
301.67	2.93948200	1.94055300
302.40	2.95995400	1.94451500
303.14	2.98165300	1.94692300
303.89	3.00438900	1.94753800
304.63	3.02791700	1.94614900
305.38	3.05194100	1.94258800
306.14	3.07612600	1.93674100
306.89	3.10010900	1.92856600
307.66	3.12351500	1.91808900
308.42	3.14598200	1.90541700
309.19	3.16716700	1.89072800
309.96	3.18678000	1.87426300
310.74	3.20458300	1.85631300
311.52	3.22040600	1.83720300
312.31	3.23414900	1.81727100
313.09	3.24538200	1.79758800
313.89	3.25492500	1.77703700
314.68	3.26246600	1.75662000
315.48	3.26813100	1.73659700
316.29	3.27207100	1.71718800
317.10	3.27446100	1.69856800
317.91	3.27548100	1.68087300
318.73	3.27531800	1.66420500
319.55	3.27414800	1.64863000
320.38	3.27214000	1.63418800
321.21	3.26945100	1.62089700
322.04	3.26622300	1.60875600
322.88	3.26258200	1.59775300
323.72	3.25864000	1.58786500
324.57	3.25449400	1.57906500
325.42	3.25022900	1.57132300
326.28	3.24591600	1.56460800
327.14	3.24162000	1.55889400
328.00	3.23739300	1.55415600
328.87	3.23328400	1.55037500
329.75	3.22933700	1.54754000
330.63	3.22559300	1.54564600
331.51	3.22209400	1.54469500
332.40	3.21888600	1.54469900
333.29	3.21602000	1.54567800
334.19	3.21355600	1.54765700
335.10	3.21156500	1.55067100
336.00	3.21013800	1.55475500
336.92	3.20937900	1.55994700
337.83	3.20941900	1.56628000
338.76	3.21041100	1.57377900
339.69	3.21253400	1.58245400
340.62	3.21599300	1.59229200
341.56	3.22101800	1.60324800
342.50	3.22785900	1.61523600
343.45	3.23677700	1.62812200
344.40	3.24803900	1.64171500
345.36	3.26190400	1.65576200
346.33	3.27860700	1.66994300
347.30	3.29834400	1.68387200
348.27	3.32125400	1.69710000
349.25	3.34740400	1.70912800
350.24	3.37676800	1.71941500
351.23	3.40921600	1.72739900
352.23	3.44450600	1.73252300
353.23	3.48228000	1.73425800
354.24	3.52206800	1.73213200
355.26	3.56329200	1.72575800
356.28	3.60529900	1.71486000
357.31	3.64737800	1.69929400
358.34	3.68879200	1.67905800
359.38	3.72882000	1.65429700
360.42	3.76678200	1.62529600
361.47	3.80208300	1.59246000
362.53	3.83422600	1.55629400
363.59	3.86283500	1.51737000
364.66	3.88766000	1.47629800
365.74	3.90857700	1.43368900
366.82	3.92557300	1.39013800
367.91	3.93873900	1.34619500
369.00	3.94824300	1.30234800
370.11	3.95431600	1.25902100
371.21	3.95654600	1.21640600
372.33	3.95661200	1.17511200
373.45	3.95412300	1.13518900
374.58	3.94912000	1.09680600
375.71	3.94242800	1.06003400
376.85	3.93405700	1.02494800
378.00	3.92426800	0.99157400
379.16	3.91329200	0.95990400
380.32	3.90134100	0.92990900
381.49	3.88860300	0.90154300
382.67	3.87524200	0.87474800
383.86	3.86140400	0.84945600
385.05	3.84721300	0.82559700
386.25	3.83277700	0.80309300
387.45	3.81818800	0.78186900
388.67	3.80352500	0.76185000
389.89	3.78885400	0.74296000
391.12	3.77423000	0.72512900
392.36	3.75970100	0.70828700
393.60	3.74530500	0.69236900
394.86	3.73107200	0.67731100
396.12	3.71702900	0.66305500
397.39	3.70319600	0.64954400
398.67	3.68958900	0.63672800
399.95	3.67621900	0.62455500
401.25	3.66309700	0.61298000
402.55	3.65022800	0.60196000
403.86	3.63761500	0.59145400
405.18	3.62526000	0.58142400
406.51	3.61316300	0.57183500
407.85	3.60132100	0.56265200
409.19	3.58973100	0.55384300
410.55	3.57838700	0.54538000
411.91	3.56728300	0.53723400
413.28	3.55640800	0.52937700
414.67	3.54575300	0.52178500
416.06	3.53489800	0.51455100
417.46	3.52459400	0.50743600
418.87	3.51429700	0.50057400
420.29	3.50425300	0.49386400
421.72	3.49428000	0.48734600
423.16	3.48431100	0.48103400
424.61	3.47424800	0.47498600
426.07	3.46394800	0.46935600
427.54	3.45324100	0.46454800
429.01	3.44217900	0.46161300
430.50	3.43277300	0.46268500
432.00	3.43275400	0.46522300
433.51	3.43672500	0.45340400
435.04	3.42780900	0.43813400
436.57	3.41517300	0.42900600
438.11	3.40329100	0.42314500
439.66	3.39247800	0.41870500
441.23	3.38250900	0.41496400
442.80	3.37318700	0.41162200
444.39	3.36437600	0.40853900
445.99	3.35598500	0.40564300
447.60	3.34795100	0.40289400
449.22	3.34010500	0.40026400
450.86	3.33228300	0.39773800
452.50	3.32513300	0.39530700
454.16	3.31821400	0.39295600
455.83	3.31151200	0.39067800
457.51	3.30501400	0.38846600
459.20	3.29870900	0.38631500
460.91	3.29259000	0.38422000
462.63	3.28664900	0.38217700
464.36	3.28087900	0.38018200
466.11	3.27527500	0.37823100
467.87	3.26983000	0.37632100
469.64	3.26454100	0.37444800
471.43	3.25940300	0.37260900
473.23	3.25441300	0.37080200
475.04	3.24956500	0.36902200
476.87	3.24485800	0.36726800
478.71	3.24028800	0.36553700
480.56	3.23585200	0.36382600
482.43	3.23154600	0.36213200
484.32	3.22737000	0.36045300
486.22	3.22332000	0.35878600
488.13	3.21939400	0.35712900
490.06	3.21559000	0.35548000
492.00	3.21190700	0.35383600
493.96	3.20834000	0.35219500
495.94	3.20489000	0.35055400
497.93	3.20155500	0.34891100
499.94	3.19833200	0.34726300
501.96	3.19522000	0.34560900
504.00	3.19221800	0.34394600
506.06	3.18932400	0.34227100
508.14	3.18653800	0.34058300
510.23	3.18385600	0.33887800
512.34	3.18127900	0.33715400
514.46	3.17880500	0.33540900
516.60	3.17643200	0.33364000
518.77	3.17416100	0.33184500
520.95	3.17198900	0.33002000
523.14	3.16991500	0.32816400
525.36	3.16794000	0.32627200
527.60	3.16606000	0.32434300
529.85	3.16427700	0.32237300
532.13	3.16258800	0.32035900
534.42	3.16099200	0.31829800
536.73	3.15948900	0.31618600
539.07	3.15807800	0.31402100
541.42	3.15675800	0.31179700
543.79	3.15552800	0.30951100
546.19	3.15438700	0.30716000
548.61	3.15333300	0.30473800
551.05	3.15236600	0.30224200
553.51	3.15148400	0.29966600
555.99	3.15068800	0.29700600
558.49	3.14997400	0.29425500
561.02	3.14934200	0.29140800
563.57	3.14879100	0.28845900
566.14	3.14831800	0.28540200
568.74	3.14792200	0.28222800
571.36	3.14760000	0.27893000
574.01	3.14735200	0.27549900
576.68	3.14671500	0.27199800
579.37	3.14658100	0.26827800
582.09	3.14650800	0.26439500
584.84	3.14633300	0.26036400
587.61	3.14635800	0.25612200
590.41	3.14642500	0.25167600
593.23	3.14652700	0.24701200
596.08	3.14665300	0.24211000
598.96	3.14679000	0.23695000
601.87	3.14692100	0.23150700
604.81	3.14702600	0.22575600
607.77	3.14707600	0.21966600
610.76	3.14703500	0.21320200
613.79	3.14685200	0.20632700
616.84	3.14645600	0.19899900
619.93	3.14574600	0.19117600
623.04	3.14456900	0.18282500
626.19	3.14269300	0.17394200
629.37	3.13974900	0.16462200
632.58	3.13515600	0.15523800
635.82	3.12813600	0.14702200
639.10	3.11852100	0.14421300
642.41	3.11629700	0.15114500
645.76	3.13646600	0.14751400
649.14	3.14110900	0.11576000
652.55	3.12560900	0.09358300
656.01	3.10852400	0.08231200
659.50	3.09363100	0.07605200
663.02	3.08079200	0.07210100
666.59	3.06951200	0.06933700
670.19	3.05940200	0.06724700
673.83	3.05019000	0.06557200
677.51	3.04169000	0.06417100
681.24	3.03376500	0.06295900
685.00	3.02631800	0.06188500
688.81	3.01927300	0.06091300
692.65	3.01257500	0.06002100
696.55	3.00617700	0.05919300
700.48	3.00004500	0.05841500
704.46	2.99414900	0.05767900
708.49	2.98846400	0.05697800
712.56	2.98297000	0.05630800
716.68	2.97765100	0.05566300
720.84	2.97249100	0.05504200
725.06	2.96733100	0.05443200
729.32	2.96246100	0.05384900
733.64	2.95771700	0.05328100
738.01	2.95264700	0.05270900
742.43	2.94814800	0.05217100
746.90	2.94375000	0.05164400
751.43	2.93944900	0.05112800
756.01	2.93524000	0.05062300
760.65	2.93111800	0.05012600
765.34	2.92707800	0.04963900
770.09	2.92311600	0.04916000
774.91	2.91923000	0.04868900
779.78	2.91541500	0.04822500
784.72	2.91128900	0.04774000
789.71	2.90761000	0.04729000
794.78	2.90399500	0.04684600
799.90	2.90044000	0.04640900
805.10	2.89694400	0.04597700
810.36	2.89350500	0.04555100
815.69	2.89012000	0.04513100
821.09	2.88678900	0.04471500
826.57	2.88350800	0.04430500
832.12	2.88027800	0.04389900
837.74	2.87709500	0.04349800
843.44	2.87396000	0.04310200
849.21	2.87086900	0.04271000
855.07	2.86782300	0.04232200
861.01	2.86482000	0.04193900
867.03	2.86185900	0.04155900
873.14	2.85893800	0.04118400
879.33	2.85605700	0.04081200
885.61	2.85321500	0.04044400
891.98	2.85041100	0.04008000
898.44	2.84764400	0.03971900
905.00	2.84491300	0.03936100
911.66	2.84221800	0.03900700
918.41	2.83955700	0.03865600
925.26	2.83693000	0.03830900
932.22	2.83433600	0.03796400
939.28	2.83177500	0.03762300
946.45	2.82924600	0.03728500
953.73	2.82674800	0.03694900
961.13	2.82428000	0.03661700
968.63	2.82184300	0.03628700
976.26	2.81943500	0.03596000
984.01	2.81705600	0.03563600
991.88	2.81470600	0.03531400
999.88	2.81238400	0.03499500
1008.01	2.81009000	0.03467900
1016.27	2.80782200	0.03436500
1024.67	2.80558200	0.03405400
1033.21	2.80336700	0.03374500
1041.89	2.80117900	0.03343800
1050.72	2.79901600	0.03313400
1059.70	2.79687700	0.03283200
1068.84	2.79476400	0.03253200
1078.13	2.79267500	0.03223500
1087.59	2.79061000	0.03193900
1097.21	2.78856800	0.03164600
1107.01	2.78655100	0.03135500
1116.98	2.78455500	0.03106600
1127.14	2.78258300	0.03077900
