; From SOPRA S.A. http://www.sopra-sa.com/indices.htm
; Filename    Symbol               Range (nm)     Description
; ZNCDTE1     Zn0.9Cd0.1Te        229     1127    Zinc Cadmium Telluride (10% Cd)
; lambda/nm       n         k
229.60	2.27876300	2.83949800
230.03	2.30262000	2.83899200
230.46	2.32668600	2.83777700
230.88	2.35092700	2.83583100
231.32	2.37530400	2.83313000
231.75	2.39978300	2.82965400
232.18	2.42431700	2.82538600
232.62	2.44886700	2.82031100
233.05	2.47338500	2.81441600
233.49	2.49782500	2.80769200
233.93	2.52213500	2.80013600
234.38	2.54626800	2.79174400
234.82	2.57017100	2.78252200
235.27	2.59379300	2.77247400
235.71	2.61708300	2.76161300
236.16	2.63999000	2.74995200
236.61	2.66246100	2.73751400
237.07	2.68428300	2.72457100
237.52	2.70573900	2.71065100
237.98	2.72662100	2.69603700
238.43	2.74688300	2.68076400
238.89	2.76649000	2.66487000
239.35	2.78540200	2.64840000
239.82	2.80358900	2.63139600
240.28	2.82102000	2.61390800
240.75	2.83767300	2.59598300
241.22	2.85352600	2.57767400
241.69	2.86856200	2.55903300
242.16	2.88277100	2.54011100
242.63	2.89614500	2.52096200
243.11	2.90868100	2.50163700
243.59	2.92037900	2.48219200
244.07	2.93124600	2.46267200
244.55	2.94128800	2.44313000
245.03	2.95051900	2.42361200
245.52	2.95895300	2.40416500
246.00	2.96660900	2.38483200
246.49	2.97350700	2.36565400
246.98	2.97967200	2.34666700
247.48	2.98512800	2.32791100
247.97	2.98990200	2.30941600
248.47	2.99402300	2.29121400
248.97	2.99751900	2.27333100
249.47	3.00042200	2.25579300
249.97	3.00276100	2.23862100
250.48	3.00456900	2.22183600
250.98	3.00587600	2.20545100
251.49	3.00671300	2.18948500
252.00	3.00711200	2.17394700
252.52	3.00710300	2.15884900
253.03	3.00671600	2.14419700
253.55	3.00597900	2.12999800
254.07	3.00492300	2.11625600
254.59	3.00357300	2.10297400
255.11	3.00195700	2.09015300
255.64	3.00010100	2.07779300
256.17	2.99802900	2.06589300
256.70	2.99576400	2.05444800
257.23	2.99333000	2.04345800
257.77	2.99074700	2.03291600
258.30	2.98803700	2.02282000
258.84	2.98521800	2.01316100
259.38	2.98230900	2.00393600
259.93	2.97932800	1.99513700
260.47	2.97629000	1.98675800
261.02	2.97321100	1.97879100
261.57	2.97010500	1.97123000
262.13	2.96698700	1.96406700
262.68	2.96386900	1.95729500
263.24	2.96076300	1.95090600
263.80	2.95768100	1.94489300
264.36	2.95463300	1.93924900
264.93	2.95162800	1.93396800
265.49	2.94867800	1.92904200
266.06	2.94578900	1.92446500
266.63	2.94297200	1.92023100
267.21	2.94023300	1.91633300
267.79	2.93757900	1.91276700
268.37	2.93501900	1.90952800
268.95	2.93255900	1.90661000
269.53	2.93020500	1.90400900
270.12	2.92796400	1.90172100
270.71	2.92584200	1.89974500
271.30	2.92384600	1.89807600
271.90	2.92198000	1.89671200
272.49	2.92025200	1.89565300
273.10	2.91866800	1.89489600
273.70	2.91723400	1.89444300
274.30	2.91595700	1.89429300
274.91	2.91484500	1.89444800
275.52	2.91390500	1.89491000
276.14	2.91314600	1.89568100
276.75	2.91257500	1.89676600
277.37	2.91220500	1.89817000
277.99	2.91204500	1.89989700
278.62	2.91210900	1.90195400
279.25	2.91241000	1.90435000
279.88	2.91296400	1.90709300
280.51	2.91379000	1.91019400
281.15	2.91490900	1.91366300
281.78	2.91634400	1.91751300
282.43	2.91812500	1.92175700
283.07	2.92028400	1.92641100
283.72	2.92286100	1.93148900
284.37	2.92590000	1.93700600
285.02	2.92945600	1.94297600
285.68	2.93359300	1.94941000
286.34	2.93838500	1.95631900
287.00	2.94392100	1.96370100
287.67	2.95030100	1.97154700
288.34	2.95763900	1.97983400
289.01	2.96606200	1.98851800
289.69	2.97570900	1.99752800
290.36	2.98672400	2.00676600
291.05	2.99924900	2.01609400
291.73	3.01342300	2.02533400
292.42	3.02936100	2.03426500
293.11	3.04715300	2.04262400
293.80	3.06683600	2.05010600
294.50	3.08840000	2.05637400
295.20	3.11175800	2.06107300
295.91	3.13674800	2.06383900
296.62	3.16311600	2.06432800
297.33	3.19053100	2.06223500
298.04	3.21857600	2.05731600
298.76	3.24677300	2.04941700
299.48	3.27461000	2.03848400
300.21	3.30155500	2.02458500
300.93	3.32710100	2.00789900
301.67	3.35079200	1.98871400
302.40	3.37225100	1.96740800
303.14	3.39119300	1.94442200
303.89	3.40744400	1.92023200
304.63	3.42051600	1.89598500
305.38	3.43126900	1.87082900
306.14	3.43940000	1.84583100
306.89	3.44508700	1.82135500
307.66	3.44855200	1.79770200
308.42	3.45004200	1.77510700
309.19	3.44982000	1.75375100
309.96	3.44814200	1.73375200
310.74	3.44525800	1.71518500
311.52	3.44139900	1.69808400
312.31	3.43677400	1.68245200
313.09	3.43156900	1.66827000
313.89	3.42594800	1.65550300
314.68	3.42005200	1.64410300
315.48	3.41400000	1.63401600
316.29	3.40789500	1.62518800
317.10	3.40182000	1.61756500
317.91	3.39584700	1.61109400
318.73	3.39003400	1.60573100
319.55	3.38442900	1.60143700
320.38	3.37907400	1.59818100
321.21	3.37400700	1.59594300
322.04	3.36926100	1.59471100
322.88	3.36487100	1.59448400
323.72	3.36087600	1.59527600
324.57	3.35732100	1.59710800
325.42	3.35426200	1.60001300
326.28	3.35176900	1.60403700
327.14	3.34993300	1.60922900
328.00	3.34886800	1.61564700
328.87	3.34872000	1.62334500
329.75	3.34966600	1.63237100
330.63	3.35192300	1.64275700
331.51	3.35574400	1.65450700
332.40	3.36142200	1.66758400
333.29	3.36928300	1.68189800
334.19	3.37967500	1.69729100
335.10	3.39295800	1.71352000
336.00	3.40948300	1.73025400
336.92	3.42956900	1.74705900
337.83	3.45347500	1.76340800
338.76	3.48137400	1.77867700
339.69	3.51332300	1.79216900
340.62	3.54923700	1.80313500
341.56	3.58887100	1.81081000
342.50	3.63180700	1.81444800
343.45	3.67745300	1.81337200
344.40	3.72506000	1.80702000
345.36	3.77374800	1.79498700
346.33	3.82254800	1.77705700
347.30	3.87045300	1.75323000
348.27	3.91647300	1.72372400
349.25	3.95969900	1.68896200
350.24	3.99934500	1.64954100
351.23	4.03478800	1.60619600
352.23	4.06559000	1.55973900
353.23	4.09150400	1.51101500
354.24	4.11245800	1.46085100
355.26	4.12854000	1.41002400
356.28	4.13996400	1.35922200
357.31	4.14704000	1.30903500
358.34	4.15014200	1.25994800
359.38	4.14967900	1.21233900
360.42	4.14607400	1.16648900
361.47	4.13974200	1.12259000
362.53	4.13041000	1.08061000
363.59	4.11980000	1.04091700
364.66	4.10756400	1.00336100
365.74	4.09400300	0.96791100
366.82	4.07938300	0.93451100
367.91	4.06393700	0.90308500
369.00	4.04786200	0.87353900
370.11	4.03133100	0.84577500
371.21	4.01422400	0.81969700
372.33	3.99719300	0.79518500
373.45	3.98007400	0.77214200
374.58	3.96295000	0.75046700
375.71	3.94589100	0.73006400
376.85	3.92895000	0.71084000
378.00	3.91217100	0.69270700
379.16	3.89522600	0.67569600
380.32	3.87883000	0.65951400
381.49	3.86253800	0.64423500
382.67	3.84659500	0.62971600
383.86	3.83088300	0.61593500
385.05	3.81539100	0.60284200
386.25	3.80009700	0.59039700
387.45	3.78496300	0.57857700
388.67	3.76993900	0.56738300
389.89	3.75495200	0.55687100
391.12	3.73991700	0.54720300
392.36	3.72480700	0.53876600
393.60	3.70997600	0.53238600
394.86	3.69738300	0.52906900
396.12	3.69147200	0.52618900
397.39	3.68927800	0.51457300
398.67	3.67942500	0.49786700
399.95	3.66462000	0.48476300
401.25	3.64942300	0.47509300
402.55	3.63497400	0.46732500
403.86	3.62134300	0.46062100
405.18	3.60841800	0.45458100
406.51	3.59608600	0.44900300
407.85	3.58426300	0.44377700
409.19	3.57288500	0.43883700
410.55	3.56190400	0.43413900
411.91	3.55128400	0.42965200
413.28	3.54099600	0.42535500
414.67	3.53090000	0.42122800
416.06	3.52122100	0.41725900
417.46	3.51145900	0.41343500
418.87	3.50233600	0.40974500
420.29	3.49346100	0.40617800
421.72	3.48482300	0.40272400
423.16	3.47641500	0.39937700
424.61	3.46822700	0.39612800
426.07	3.46025300	0.39297100
427.54	3.45248500	0.38989900
429.01	3.44491800	0.38690700
430.50	3.43754500	0.38398800
432.00	3.43036100	0.38113900
433.51	3.42336100	0.37835200
435.04	3.41654000	0.37562400
436.57	3.40989400	0.37295100
438.11	3.40341700	0.37032700
439.66	3.39710700	0.36774800
441.23	3.39095900	0.36521100
442.80	3.38496900	0.36271100
444.39	3.37913400	0.36024500
445.99	3.37345100	0.35780900
447.60	3.36791500	0.35540000
449.22	3.36252500	0.35301400
450.86	3.35727800	0.35064700
452.50	3.35217000	0.34829700
454.16	3.34719800	0.34596000
455.83	3.34236000	0.34363300
457.51	3.33765400	0.34131200
459.20	3.33307700	0.33899500
460.91	3.32862700	0.33667900
462.63	3.32430100	0.33436000
464.36	3.32009700	0.33203500
466.11	3.31601300	0.32970200
467.87	3.31204800	0.32735700
469.64	3.30819800	0.32499600
471.43	3.30446300	0.32261800
473.23	3.30083900	0.32021800
475.04	3.29732500	0.31779300
476.87	3.29392000	0.31534000
478.71	3.29062100	0.31285500
480.56	3.28742700	0.31033600
482.43	3.28433600	0.30777800
484.32	3.28134500	0.30517700
486.22	3.27845300	0.30253000
488.13	3.27565900	0.29983200
490.06	3.27296000	0.29708000
492.00	3.27035500	0.29426900
493.96	3.26784000	0.29139400
495.94	3.26541500	0.28845000
497.93	3.26263500	0.28550200
499.94	3.26036500	0.28240800
501.96	3.25817500	0.27923000
504.00	3.25606400	0.27596000
506.06	3.25387400	0.27261800
508.14	3.25190200	0.26914700
510.23	3.24999700	0.26556400
512.34	3.24815400	0.26186000
514.46	3.24636800	0.25802600
516.60	3.24463300	0.25405300
518.77	3.24294200	0.24992900
520.95	3.24128600	0.24564300
523.14	3.23965600	0.24118200
525.36	3.23803900	0.23653200
527.60	3.23642000	0.23167800
529.85	3.23478000	0.22660200
532.13	3.23309500	0.22128600
534.42	3.23133500	0.21570900
536.73	3.22945900	0.20985300
539.07	3.22741300	0.20369600
541.42	3.22512200	0.19722400
543.79	3.22248400	0.19043100
546.19	3.21935200	0.18333800
548.61	3.21551300	0.17602800
551.05	3.21066800	0.16872600
553.51	3.20443900	0.16199400
555.99	3.19661800	0.15719900
558.49	3.18827900	0.15782300
561.02	3.18781500	0.16430700
563.57	3.20292400	0.16288200
566.14	3.21229200	0.13985100
568.74	3.20301300	0.11653900
571.36	3.18838100	0.10248500
574.01	3.17405900	0.09415400
576.68	3.16115800	0.08882600
579.37	3.14960200	0.08511700
582.09	3.13913800	0.08234400
584.84	3.12954300	0.08015000
587.61	3.12064600	0.07833400
590.41	3.11231800	0.07678000
593.23	3.10446400	0.07541300
596.08	3.09700900	0.07418600
598.96	3.08989800	0.07306500
601.87	3.08308500	0.07202900
604.81	3.07653500	0.07106000
607.77	3.07021800	0.07014600
610.76	3.06411100	0.06927900
613.79	3.05819400	0.06845100
616.84	3.05244900	0.06765700
619.93	3.04686300	0.06689200
623.04	3.04142200	0.06615300
626.19	3.03611700	0.06543800
629.37	3.03093700	0.06474200
632.58	3.02587600	0.06406600
635.82	3.02092500	0.06340600
639.10	3.01592600	0.06275400
642.41	3.01118200	0.06212500
645.76	3.00653100	0.06150900
649.14	3.00196700	0.06090500
652.55	2.99703900	0.06029400
656.01	2.99265200	0.05971400
659.50	2.98834100	0.05914400
663.02	2.98410200	0.05858400
666.59	2.97993400	0.05803300
670.19	2.97583100	0.05749000
673.83	2.97179300	0.05695500
677.51	2.96781800	0.05642900
681.24	2.96390200	0.05591000
685.00	2.96004300	0.05539800
688.81	2.95624100	0.05489300
692.65	2.95249300	0.05439500
696.55	2.94879800	0.05390300
700.48	2.94515300	0.05341800
704.46	2.94155900	0.05293800
708.49	2.93801200	0.05246500
712.56	2.93451300	0.05199700
716.68	2.93105900	0.05153500
720.84	2.92765000	0.05107800
725.06	2.92428400	0.05062600
729.32	2.92096100	0.05017900
733.64	2.91767900	0.04973800
738.01	2.91443800	0.04930100
742.43	2.91123600	0.04886900
746.90	2.90807200	0.04844100
751.43	2.90494700	0.04801800
756.01	2.90147700	0.04757400
760.65	2.89842600	0.04716000
765.34	2.89541100	0.04675000
770.09	2.89243000	0.04634300
774.91	2.88948400	0.04594100
779.78	2.88657200	0.04554300
784.72	2.88369200	0.04514900
789.71	2.88084500	0.04475800
794.78	2.87802900	0.04437100
799.90	2.87524500	0.04398800
805.10	2.87249100	0.04360800
810.36	2.86976700	0.04323100
815.69	2.86707300	0.04285800
821.09	2.86440900	0.04248800
826.57	2.86177300	0.04212200
832.12	2.85916500	0.04175800
837.74	2.85658500	0.04139800
843.44	2.85403300	0.04104100
849.21	2.85150700	0.04068700
855.07	2.84900800	0.04033600
861.01	2.84653500	0.03998700
867.03	2.84408800	0.03964200
873.14	2.84166700	0.03929900
879.33	2.83927100	0.03896000
885.61	2.83689900	0.03862200
891.98	2.83455200	0.03828800
898.44	2.83223000	0.03795600
905.00	2.82993100	0.03762700
911.66	2.82765500	0.03730000
918.41	2.82540300	0.03697600
925.26	2.82317400	0.03665400
932.22	2.82096700	0.03633500
939.28	2.81878300	0.03601800
946.45	2.81662000	0.03570300
953.73	2.81448000	0.03539100
961.13	2.81236100	0.03508100
968.63	2.81026400	0.03477300
976.26	2.80818700	0.03446700
984.01	2.80613200	0.03416400
991.88	2.80409700	0.03386200
999.88	2.80208300	0.03356300
1008.01	2.80008900	0.03326600
1016.27	2.79811500	0.03297000
1024.67	2.79616000	0.03267700
1033.21	2.79422500	0.03238600
1041.89	2.79231000	0.03209700
1050.72	2.79041400	0.03180900
1059.70	2.78853600	0.03152400
1068.84	2.78667800	0.03124000
1078.13	2.78483800	0.03095800
1087.59	2.78301600	0.03067800
1097.21	2.78121300	0.03039900
1107.01	2.77942800	0.03012300
1116.98	2.77766100	0.02984800
1127.14	2.77591200	0.02957500
