; From SOPRA S.A. http://www.sopra-sa.com/indices.htm
; Filename    Symbol               Range (nm)     Description
; ZNSE        ZnSe                190     1239    Zinc Selenide
; lambda/nm       n         k
190.75	2.26368600	2.36358900
192.23	2.31442400	2.29265500
193.73	2.36128600	2.21032100
195.25	2.40412300	2.11880600
196.80	2.44278300	2.02033400
198.38	2.47711400	1.91712500
199.98	2.50696400	1.81139900
201.60	2.53218400	1.70537900
203.25	2.55262100	1.60128400
204.93	2.56946100	1.49763900
206.64	2.57854000	1.40775700
208.38	2.57431700	1.34875700
210.14	2.56210300	1.30776000
211.94	2.54514800	1.27758900
213.77	2.52410100	1.25825100
215.63	2.50040100	1.24757300
217.52	2.47492900	1.24491800
219.44	2.44870200	1.24929500
221.40	2.42276000	1.25959400
223.40	2.39812000	1.27481200
225.43	2.37586700	1.29363000
227.50	2.35719700	1.31419200
229.60	2.34279000	1.33711000
231.75	2.33233900	1.36398100
233.93	2.33000000	1.39000000
236.16	2.34138600	1.40883100
238.43	2.36181500	1.42667400
240.75	2.38849700	1.44742300
243.11	2.42136900	1.47165600
245.52	2.45987200	1.49812900
247.97	2.50270300	1.53619200
250.48	2.54813900	1.60109900
253.03	2.59687100	1.67388800
255.64	2.64721900	1.75818500
258.30	2.70457000	1.80149200
261.02	2.77583600	1.73946100
263.80	2.85476800	1.61126900
266.63	2.93957000	1.42146900
269.53	3.02380400	1.20959600
272.49	3.10217300	1.00752600
275.52	3.16944700	0.84280500
278.62	3.21804500	0.75782200
281.78	3.24972100	0.73994500
285.02	3.25970900	0.81787400
288.34	3.26000000	0.91000000
291.73	3.26243500	0.93109600
295.20	3.26270300	0.92071900
298.76	3.26032400	0.88921300
302.40	3.25565100	0.83899200
306.14	3.24884400	0.76959000
309.96	3.24000000	0.70000000
313.89	3.22919500	0.65502800
317.91	3.21664700	0.61677100
322.04	3.20255300	0.57422100
326.28	3.18705700	0.53150500
330.63	3.17031800	0.48896700
335.10	3.15249300	0.44695100
339.69	3.13431700	0.40524800
344.40	3.11422000	0.36585500
349.25	3.09096800	0.33044700
354.24	3.06429000	0.29977800
359.38	3.03229200	0.27615600
364.66	2.99860500	0.25659900
370.11	2.96627300	0.23869100
375.71	2.93516800	0.22304700
381.49	2.90595600	0.20952500
387.45	2.87930300	0.19798100
393.60	2.85587600	0.18827300
399.95	2.83633900	0.18025900
406.51	2.82135800	0.17379600
413.28	2.81159900	0.16874100
420.29	2.80725900	0.16481800
427.54	2.81041300	0.16228600
435.04	2.82454500	0.16180500
442.80	2.84562300	0.16189400
450.86	2.87665400	0.16337800
459.20	2.90000000	0.16000000
467.87	2.89495800	0.14387300
476.87	2.87372600	0.12070900
486.22	2.83793100	0.09104100
495.94	2.79858000	0.06251800
506.06	2.76903500	0.04442200
516.60	2.74385000	0.03238800
527.60	2.72250400	0.02562500
539.07	2.70358100	0.02269400
551.05	2.68532900	0.02191000
563.57	2.66823600	0.02321400
576.68	2.65222900	0.02614100
590.41	2.63723500	0.03022500
604.81	2.62324700	0.03603700
619.93	2.61000000	0.04000000
635.82	2.59714700	0.03724700
652.55	2.58491900	0.03221500
670.19	2.57346800	0.02803300
688.81	2.56269200	0.02375300
708.49	2.55255100	0.01944600
729.32	2.54300600	0.01518400
751.43	2.53401700	0.01103700
774.91	2.52554600	0.00707600
799.90	2.51755300	0.00303100
826.57	2.51000000	0.00000000
855.07	2.50284700	0.00000000
885.61	2.49605400	0.00000000
918.41	2.48958300	0.00000000
953.73	2.48339400	0.00000000
991.88	2.47744900	0.00000000
1033.21	2.47170800	0.00000000
1078.13	2.46613100	0.00000000
1127.14	2.46068000	0.00000000
1180.81	2.45531600	0.00000000
1239.85	2.45000000	0.00000000
