; From SOPRA S.A. http://www.sopra-sa.com/indices.htm
; Filename    Symbol               Range (nm)     Description
; ZNSETE3     ZnSe0.7Te0.3        196     1771    Zinc Selenium Telluride (30% Te)    *
; lambda/nm       n         k
196.80	1.41643100	2.53558800
197.19	1.42837600	2.54548500
197.59	1.44066400	2.55538900
197.98	1.45330400	2.56528700
198.38	1.46630800	2.57517100
198.77	1.47968500	2.58503000
199.17	1.49344700	2.59485300
199.57	1.50760500	2.60462700
199.98	1.52201300	2.61467900
200.38	1.53699300	2.62431300
200.79	1.55239900	2.63385500
201.19	1.56824300	2.64328600
201.60	1.58453400	2.65259100
202.01	1.60128200	2.66174800
202.42	1.61849400	2.67073900
202.84	1.63618000	2.67954000
203.25	1.65434800	2.68812900
203.67	1.67300300	2.69648100
204.09	1.69215100	2.70457000
204.51	1.71179800	2.71236800
204.93	1.73194500	2.71984700
205.36	1.75259500	2.72697700
205.78	1.77374900	2.73372600
206.21	1.79540200	2.74006000
206.64	1.81755400	2.74594600
207.07	1.84019500	2.75134800
207.51	1.86331800	2.75623100
207.94	1.88691300	2.76055600
208.38	1.91096400	2.76428700
208.82	1.93545400	2.76738400
209.26	1.96036300	2.76980900
209.70	1.98566600	2.77152300
210.14	2.01133700	2.77248900
210.59	2.03734100	2.77266700
211.04	2.06364800	2.77202400
211.49	2.09021500	2.77052200
211.94	2.11700000	2.76813000
212.39	2.14395800	2.76481600
212.85	2.17103500	2.76055300
213.31	2.19818200	2.75531500
213.77	2.22533600	2.74908400
214.23	2.25244000	2.74184100
214.69	2.27943100	2.73357600
215.16	2.30624300	2.72428000
215.63	2.33280900	2.71395400
216.10	2.35905900	2.70260100
216.57	2.38492700	2.69023200
217.04	2.41034400	2.67686300
217.52	2.43524000	2.66251700
218.00	2.45955000	2.64722300
218.48	2.48320800	2.63101500
218.96	2.50615300	2.61393500
219.44	2.52832900	2.59602600
219.93	2.54967900	2.57734400
220.42	2.57015500	2.55794100
220.91	2.58971300	2.53787900
221.40	2.60831300	2.51722200
221.90	2.62592400	2.49603400
222.39	2.64251700	2.47438500
222.89	2.65807300	2.45234400
223.40	2.67257700	2.42998400
223.90	2.68602100	2.40737400
224.41	2.69840300	2.38458200
224.92	2.70972600	2.36168100
225.43	2.72000100	2.33873500
225.94	2.72904500	2.31606300
226.46	2.73726500	2.29322400
226.98	2.74449300	2.27052600
227.50	2.75075700	2.24802600
228.02	2.75608600	2.22577500
228.54	2.76051400	2.20382200
229.07	2.76407800	2.18220900
229.60	2.76681500	2.16097800
230.13	2.76876500	2.14016400
230.67	2.76996800	2.11980000
231.21	2.77046600	2.09991400
231.75	2.77030000	2.08053000
232.29	2.76951100	2.06166900
232.84	2.76814200	2.04335000
233.38	2.76623300	2.02558600
233.93	2.76382300	2.00838900
234.49	2.76095200	1.99176800
235.04	2.75765800	1.97572800
235.60	2.75397800	1.96027500
236.16	2.74994700	1.94540800
236.73	2.74560000	1.93113000
237.29	2.74096800	1.91743700
237.86	2.73608200	1.90432500
238.43	2.73097300	1.89179100
239.01	2.72566900	1.87982900
239.58	2.72019500	1.86843100
240.16	2.71457800	1.85759100
240.75	2.70884000	1.84729900
241.33	2.70300500	1.83754700
241.92	2.69709200	1.82832500
242.51	2.69112300	1.81962500
243.11	2.68511300	1.81143600
243.71	2.67908200	1.80374700
244.31	2.67304500	1.79655000
244.91	2.66701700	1.78983300
245.52	2.66101200	1.78358800
246.12	2.65504300	1.77780400
246.74	2.64912200	1.77247100
247.35	2.64326000	1.76758100
247.97	2.63746900	1.76312300
248.59	2.63175600	1.75909100
249.22	2.62613300	1.75547400
249.84	2.62060700	1.75226600
250.48	2.61518700	1.74945900
251.11	2.60988100	1.74704600
251.75	2.60469500	1.74502000
252.39	2.59963600	1.74337500
253.03	2.59471200	1.74210700
253.68	2.58992900	1.74120900
254.33	2.58529400	1.74067800
254.98	2.58081200	1.74051000
255.64	2.57648900	1.74070100
256.30	2.57233400	1.74125000
256.96	2.56835200	1.74215400
257.63	2.56455000	1.74341200
258.30	2.56093500	1.74502300
258.98	2.55751500	1.74698700
259.65	2.55429900	1.74930500
260.34	2.55129400	1.75197900
261.02	2.54851100	1.75500900
261.71	2.54596000	1.75839900
262.40	2.54365300	1.76215200
263.10	2.54160200	1.76627100
263.80	2.53982300	1.77076000
264.50	2.53832900	1.77562400
265.21	2.53714000	1.78086700
265.92	2.53627400	1.78649400
266.63	2.53575300	1.79251100
267.35	2.53560200	1.79892200
268.08	2.53584700	1.80573100
268.80	2.53651800	1.81294300
269.53	2.53764800	1.82055900
270.27	2.53927500	1.82858100
271.01	2.54143900	1.83700700
271.75	2.54418300	1.84583400
272.49	2.54755800	1.85505600
273.25	2.55161600	1.86466000
274.00	2.55641500	1.87463000
274.76	2.56201700	1.88494500
275.52	2.56848900	1.89557200
276.29	2.57590000	1.90647400
277.06	2.58432400	1.91760000
277.84	2.59383700	1.92888800
278.62	2.60451700	1.94026200
279.40	2.61643800	1.95162900
280.19	2.62967500	1.96288000
280.99	2.64429500	1.97388100
281.78	2.66035100	1.98448100
282.59	2.67788400	1.99450200
283.39	2.69691200	2.00374600
284.21	2.71741900	2.01199200
285.02	2.73935300	2.01900300
285.84	2.76261400	2.02453300
286.67	2.78705100	2.02833500
287.50	2.81245400	2.03017600
288.34	2.83855400	2.02985200
289.18	2.86503000	2.02720300
290.02	2.89151100	2.02213400
290.87	2.91760200	2.01462000
291.73	2.94289600	2.00472500
292.59	2.96699200	1.99259800
293.46	2.98952900	1.97847000
294.33	3.01019500	1.96265000
295.20	3.02841800	1.94628600
296.08	3.04470700	1.92822500
296.97	3.05865400	1.90964800
297.86	3.07026800	1.89096400
298.76	3.07963200	1.87255900
299.66	3.08689100	1.85478300
300.57	3.09224100	1.83793900
301.48	3.09591300	1.82228300
302.40	3.09816000	1.80801700
303.33	3.09924800	1.79529600
304.26	3.09944700	1.78423100
305.19	3.09902400	1.77489200
306.14	3.09823600	1.76731600
307.08	3.09733400	1.76151200
308.04	3.09655400	1.75746500
309.00	3.09612600	1.75513900
309.96	3.09626700	1.75448300
310.93	3.09718800	1.75543000
311.91	3.09909400	1.75789900
312.90	3.10218400	1.76179400
313.89	3.10665600	1.76700700
314.88	3.11270700	1.77340900
315.89	3.12053000	1.78085200
316.90	3.13031900	1.78916800
317.91	3.14226300	1.79815500
318.93	3.15654600	1.80758400
319.96	3.17334000	1.81718600
321.00	3.19279500	1.82665100
322.04	3.21503700	1.83562600
323.09	3.24014700	1.84370800
324.14	3.26815300	1.85045600
325.21	3.29900700	1.85539000
326.28	3.33258200	1.85801000
327.35	3.36864500	1.85780600
328.44	3.40686100	1.85429000
329.53	3.44678200	1.84701800
330.63	3.48785700	1.83562200
331.73	3.52945100	1.81983600
332.85	3.57086500	1.79952500
333.97	3.61137400	1.77469400
335.10	3.65025500	1.74550200
336.23	3.68683900	1.71224900
337.37	3.72052900	1.67536600
338.53	3.75084700	1.63538000
339.69	3.77743300	1.59289400
340.85	3.80006500	1.54854000
342.03	3.81865000	1.50295100
343.21	3.83321700	1.45673700
344.40	3.84389500	1.41044800
345.60	3.85089500	1.36457500
346.81	3.85448600	1.31952900
348.03	3.85497400	1.27564800
349.25	3.85268600	1.23319200
350.49	3.84795400	1.19234700
351.73	3.84110100	1.15324800
352.98	3.83243600	1.11596800
354.24	3.82154200	1.08033300
355.51	3.81009800	1.04676800
356.79	3.79762500	1.01502300
358.08	3.78433200	0.98504800
359.38	3.77040300	0.95677800
360.68	3.75599900	0.93013800
362.00	3.74125700	0.90504800
363.33	3.72629600	0.88141900
364.66	3.71121700	0.85916800
366.01	3.69610300	0.83820600
367.36	3.68102700	0.81845100
368.73	3.66604700	0.79982200
370.11	3.65121100	0.78223900
371.49	3.63656000	0.76562900
372.89	3.62212500	0.74992200
374.29	3.60754200	0.73516200
375.71	3.59358900	0.72106900
377.14	3.57990700	0.70769200
378.58	3.56637400	0.69501400
380.03	3.55295200	0.68290400
381.49	3.54012500	0.67135900
382.97	3.52758600	0.66033000
384.45	3.51533200	0.64977400
385.95	3.50335400	0.63965300
387.45	3.49164500	0.62993100
388.97	3.48018900	0.62057400
390.50	3.46897000	0.61155300
392.05	3.45796500	0.60284000
393.60	3.44714600	0.59441400
395.17	3.43647600	0.58626000
396.75	3.42590600	0.57837300
398.35	3.41537100	0.57076900
399.95	3.40478400	0.56349300
401.57	3.39402500	0.55665900
403.20	3.38294600	0.55051200
404.85	3.37141400	0.54558800
406.51	3.35959700	0.54305200
408.18	3.34927900	0.54502300
409.87	3.34735900	0.55239500
411.57	3.35968200	0.54994600
413.28	3.36474200	0.52793400
415.01	3.35457100	0.50765700
416.76	3.34043500	0.49500900
418.52	3.32700600	0.48677100
420.29	3.31490500	0.48070500
422.08	3.30395900	0.47577200
423.88	3.29393300	0.47148600
425.70	3.28464700	0.46760500
427.54	3.27596600	0.46399800
429.39	3.26779800	0.46058700
431.25	3.26007400	0.45732500
433.14	3.25274300	0.45418000
435.04	3.24576600	0.45112800
436.95	3.23911200	0.44815400
438.89	3.23275700	0.44524300
440.84	3.22668100	0.44238500
442.80	3.22086900	0.43957000
444.79	3.21530500	0.43679000
446.79	3.20997900	0.43403900
448.82	3.20488000	0.43130900
450.86	3.19956400	0.42866900
452.91	3.19474600	0.42597200
454.99	3.19027500	0.42327100
457.09	3.18600000	0.42056800
459.20	3.18149800	0.41788200
461.34	3.17761400	0.41515800
463.50	3.17391000	0.41241600
465.67	3.17022800	0.40967700
467.87	3.16686600	0.40688300
470.09	3.16367100	0.40405400
472.32	3.16063900	0.40118600
474.58	3.15776700	0.39827300
476.87	3.15505100	0.39530800
479.17	3.15248700	0.39228700
481.50	3.15007400	0.38920300
483.84	3.14780600	0.38605000
486.22	3.14568200	0.38282200
488.61	3.14369800	0.37951200
491.03	3.14185000	0.37611200
493.47	3.14013600	0.37261600
495.94	3.13855100	0.36901600
498.43	3.13709300	0.36530400
500.95	3.13575600	0.36147000
503.49	3.13453700	0.35750600
506.06	3.13343100	0.35340300
508.66	3.13243300	0.34914800
511.28	3.13153600	0.34473200
513.93	3.13073600	0.34014100
516.60	3.13002300	0.33536400
519.31	3.12938900	0.33038500
522.04	3.12882400	0.32518800
524.80	3.12831700	0.31975900
527.60	3.12785100	0.31407600
530.42	3.12741100	0.30812200
533.27	3.12697400	0.30187300
536.15	3.12651300	0.29530600
539.07	3.12599300	0.28839400
542.01	3.12537100	0.28111200
544.99	3.12458800	0.27343100
548.00	3.12356900	0.26532400
551.05	3.12220800	0.25677000
554.12	3.12036100	0.24776300
557.24	3.11782100	0.23833200
560.39	3.11429400	0.22858100
563.57	3.10935200	0.21879100
566.79	3.10181200	0.21003200
570.05	3.09222500	0.20346700
573.34	3.08091100	0.20333200
576.68	3.07597500	0.21529300
580.05	3.09788200	0.22864000
583.46	3.13259300	0.20339700
586.91	3.13299100	0.15878900
590.41	3.11354200	0.12912500
593.94	3.09155400	0.11213000
597.52	3.07236000	0.10213300
601.14	3.05555800	0.09559600
604.81	3.04072200	0.09097000
608.52	3.02742800	0.08747900
612.27	3.01534700	0.08470600
616.08	3.00423600	0.08241200
619.93	2.99391800	0.08045400
623.82	2.98425700	0.07874000
627.77	2.97515100	0.07720800
631.77	2.96652200	0.07581700
635.82	2.95830600	0.07453700
639.92	2.95045300	0.07334600
644.08	2.94292300	0.07223000
648.29	2.93568100	0.07117400
652.55	2.92870000	0.07017200
656.88	2.92195500	0.06921300
661.25	2.91542700	0.06829400
665.69	2.90909700	0.06740900
670.19	2.90295100	0.06655400
674.75	2.89697500	0.06572600
679.37	2.89115900	0.06492300
684.06	2.88549000	0.06414200
688.81	2.87996200	0.06338000
693.62	2.87456500	0.06263800
698.51	2.86929200	0.06191200
703.46	2.86413600	0.06120300
708.49	2.85909200	0.06050800
713.58	2.85415400	0.05982800
718.75	2.84931700	0.05916000
724.00	2.84457700	0.05850400
729.32	2.83992800	0.05786000
734.73	2.83536900	0.05722800
740.21	2.83089500	0.05660500
745.78	2.82650200	0.05599300
751.43	2.82218800	0.05539000
757.16	2.81795000	0.05479600
762.99	2.81378500	0.05421100
768.90	2.80969100	0.05363400
774.91	2.80566500	0.05306600
781.01	2.80154100	0.05250100
787.21	2.79764900	0.05194800
793.51	2.79381900	0.05140200
799.90	2.79005000	0.05086300
806.41	2.78634000	0.05033100
813.02	2.78268600	0.04980500
819.74	2.77908800	0.04928600
826.57	2.77505700	0.04876300
833.51	2.77157500	0.04825700
840.58	2.76774400	0.04772400
847.76	2.76436400	0.04722900
855.07	2.76103300	0.04673900
862.51	2.75775000	0.04625400
870.07	2.75451300	0.04577500
877.77	2.75132200	0.04530100
885.61	2.74817500	0.04483200
893.59	2.74507200	0.04436700
901.71	2.74201300	0.04390700
909.98	2.73899400	0.04345200
918.41	2.73601700	0.04300100
926.99	2.73308100	0.04255500
935.74	2.73018400	0.04211300
944.65	2.72732500	0.04167500
953.73	2.72450500	0.04124100
962.99	2.72172300	0.04081100
972.43	2.71897700	0.04038500
982.06	2.71626700	0.03996300
991.88	2.71359300	0.03954400
1001.90	2.71095500	0.03913000
1012.12	2.70835000	0.03871800
1022.56	2.70578000	0.03831100
1033.21	2.70324300	0.03790700
1044.09	2.70073900	0.03750600
1055.19	2.69826700	0.03710800
1066.54	2.69582700	0.03671400
1078.13	2.69341900	0.03632300
1089.98	2.69104100	0.03593500
1102.09	2.68869500	0.03555000
1114.47	2.68637800	0.03516800
1127.14	2.68409100	0.03478900
1140.09	2.68183400	0.03441300
1153.35	2.67960600	0.03404000
1166.92	2.67740600	0.03366900
1180.81	2.67523500	0.03330200
1195.04	2.67309100	0.03293600
1209.61	2.67097500	0.03257400
1224.55	2.66888600	0.03221400
1239.85	2.66682400	0.03185700
1255.55	2.66478900	0.03150200
1271.64	2.66278000	0.03114900
1288.16	2.66079700	0.03079900
1305.11	2.65884000	0.03045200
1322.51	2.65690900	0.03010600
1340.38	2.65500200	0.02976300
1358.74	2.65312000	0.02942200
1377.61	2.65126300	0.02908400
1397.02	2.64943100	0.02874700
1416.97	2.64762200	0.02841300
1437.51	2.64583800	0.02808000
1458.65	2.64407700	0.02775000
1480.42	2.64233900	0.02742100
1502.85	2.64062500	0.02709500
1525.97	2.63893400	0.02677000
1549.81	2.63726600	0.02644800
1574.41	2.63562000	0.02612700
1599.81	2.63399700	0.02580800
1626.04	2.63239600	0.02549100
1653.14	2.63081600	0.02517600
1681.16	2.62925900	0.02486200
1710.14	2.62772300	0.02455000
1740.14	2.62620900	0.02424000
1771.22	2.62471700	0.02393100
