; From SOPRA S.A. http://www.sopra-sa.com/indices.htm
; Filename    Symbol               Range (nm)     Description
; ZNSETE1     ZnSe0.9Te0.1        196     1771    Zinc Selenium Telluride (10% Te)    *
; lambda/nm       n         k
196.80	1.35517000	2.35216000
197.19	1.36128000	2.36049100
197.59	1.36753000	2.36891700
197.98	1.37392600	2.37744100
198.38	1.38047400	2.38606200
198.77	1.38718000	2.39478100
199.17	1.39404900	2.40359900
199.57	1.40108900	2.41251500
199.98	1.40830600	2.42153000
200.38	1.41570500	2.43064300
200.79	1.42329600	2.43985400
201.19	1.43108500	2.44916400
201.60	1.43907900	2.45857000
202.01	1.44728800	2.46807400
202.42	1.45571900	2.47767200
202.84	1.46438100	2.48736300
203.25	1.47328300	2.49714700
203.67	1.48243400	2.50702100
204.09	1.49184500	2.51698200
204.51	1.50152500	2.52702700
204.93	1.51148400	2.53715400
205.36	1.52173400	2.54735700
205.78	1.53228500	2.55763400
206.21	1.54314900	2.56797900
206.64	1.55433900	2.57838700
207.07	1.56586500	2.58885000
207.51	1.57774100	2.59936200
207.94	1.58998000	2.60991700
208.38	1.60259400	2.62050400
208.82	1.61543200	2.63144400
209.26	1.62883600	2.64206800
209.70	1.64265700	2.65269200
210.14	1.65690900	2.66330600
210.59	1.67160400	2.67389300
211.04	1.68675900	2.68444000
211.49	1.70238500	2.69493000
211.94	1.71849900	2.70534500
212.39	1.73511300	2.71566500
212.85	1.75224000	2.72586900
213.31	1.76989500	2.73593400
213.77	1.78808900	2.74583600
214.23	1.80683400	2.75554800
214.69	1.82614100	2.76504100
215.16	1.84602000	2.77428500
215.63	1.86648000	2.78324900
216.10	1.88752500	2.79189700
216.57	1.90916400	2.80019400
217.04	1.93139800	2.80810000
217.52	1.95422700	2.81557600
218.00	1.97765200	2.82258000
218.48	2.00166600	2.82906700
218.96	2.02626100	2.83499300
219.44	2.05142900	2.84030900
219.93	2.07714900	2.84496900
220.42	2.10340700	2.84892300
220.91	2.13017600	2.85212100
221.40	2.15742800	2.85451500
221.90	2.18513000	2.85605400
222.39	2.21324200	2.85669100
222.89	2.24172100	2.85637900
223.40	2.27051600	2.85507200
223.90	2.29957200	2.85272900
224.41	2.32883200	2.84931100
224.92	2.35822500	2.84478400
225.43	2.38768500	2.83911800
225.94	2.41713500	2.83228900
226.46	2.44649700	2.82427800
226.98	2.47568900	2.81507700
227.50	2.50462500	2.80468000
228.02	2.53322100	2.79309300
228.54	2.56138600	2.78032900
229.07	2.58903600	2.76640900
229.60	2.61608400	2.75136200
230.13	2.64244500	2.73522800
230.67	2.66804100	2.71805400
231.21	2.69279200	2.69989500
231.75	2.71663100	2.68081300
232.29	2.73949300	2.66087500
232.84	2.76114500	2.64040500
233.38	2.78188400	2.61899000
233.93	2.80149400	2.59696200
234.49	2.81994500	2.57440500
235.04	2.83721100	2.55140600
235.60	2.85327600	2.52805900
236.16	2.86813400	2.50445000
236.73	2.88178500	2.48066900
237.29	2.89423800	2.45680100
237.86	2.90550900	2.43292800
238.43	2.91562200	2.40913200
239.01	2.92460700	2.38548500
239.58	2.93249700	2.36206000
240.16	2.93933200	2.33892100
240.75	2.94515600	2.31612700
241.33	2.95001600	2.29373400
241.92	2.95396100	2.27178900
242.51	2.95704200	2.25033600
243.11	2.95931000	2.22941300
243.71	2.96082100	2.20905000
244.31	2.96162500	2.18927700
244.91	2.96177700	2.17011600
245.52	2.96132900	2.15158400
246.12	2.96033000	2.13369500
246.74	2.95883300	2.11645900
247.35	2.95688300	2.09988300
247.97	2.95452700	2.08396900
248.59	2.95181100	2.06871900
249.22	2.94877600	2.05413000
249.84	2.94546200	2.04019700
250.48	2.94190800	2.02691600
251.11	2.93814900	2.01427600
251.75	2.93422000	2.00227000
252.39	2.93015100	1.99088600
253.03	2.92597400	1.98011500
253.68	2.92171500	1.96994200
254.33	2.91740100	1.96035600
254.98	2.91305600	1.95134500
255.64	2.90870000	1.94289400
256.30	2.90435700	1.93499100
256.96	2.90004400	1.92762200
257.63	2.89578000	1.92077500
258.30	2.89158000	1.91443600
258.98	2.88746000	1.90859300
259.65	2.88343300	1.90323500
260.34	2.87951400	1.89834900
261.02	2.87571300	1.89392500
261.71	2.87204300	1.88995300
262.40	2.86851300	1.88642400
263.10	2.86513500	1.88332700
263.80	2.86191700	1.88065700
264.50	2.85886700	1.87840400
265.21	2.85599700	1.87656400
265.92	2.85331300	1.87513100
266.63	2.85082600	1.87410100
267.35	2.84854300	1.87347000
268.08	2.84647300	1.87323600
268.80	2.84462800	1.87339900
269.53	2.84301700	1.87395900
270.27	2.84165000	1.87491600
271.01	2.84054100	1.87627300
271.75	2.83970200	1.87803500
272.49	2.83914900	1.88020600
273.25	2.83890000	1.88279200
274.00	2.83897300	1.88580200
274.76	2.83939000	1.88924300
275.52	2.84017700	1.89312700
276.29	2.84136300	1.89746400
277.06	2.84298300	1.90226600
277.84	2.84507500	1.90754600
278.62	2.84768500	1.91331600
279.40	2.85086600	1.91958900
280.19	2.85468100	1.92637600
280.99	2.85920200	1.93368700
281.78	2.86451300	1.94152500
282.59	2.87071300	1.94988700
283.39	2.87791800	1.95876300
284.21	2.88626000	1.96812200
285.02	2.89588900	1.97791600
285.84	2.90697200	1.98806400
286.67	2.91969200	1.99844500
287.50	2.93423500	2.00888900
288.34	2.95078300	2.01916700
289.18	2.96949400	2.02898000
290.02	2.99048000	2.03796100
290.87	3.01378600	2.04567700
291.73	3.03935900	2.05164300
292.59	3.06702100	2.05534700
293.46	3.09646000	2.05628500
294.33	3.12721700	2.05400400
295.20	3.15869800	2.04815100
296.08	3.19020600	2.03851300
296.97	3.22097700	2.02506200
297.86	3.25024400	2.00796200
298.76	3.27729800	1.98757200
299.66	3.30154400	1.96441500
300.57	3.32254100	1.93913600
301.48	3.34003000	1.91244600
302.40	3.35352500	1.88577400
303.33	3.36391200	1.85840500
304.26	3.37100800	1.83162300
305.19	3.37512500	1.80593200
306.14	3.37663300	1.78172200
307.08	3.37593200	1.75928200
308.04	3.37342100	1.73880400
309.00	3.36948300	1.72040200
309.96	3.36447100	1.70412300
310.93	3.35870500	1.68997000
311.91	3.35246600	1.67791100
312.90	3.34600100	1.66789300
313.89	3.33952500	1.65985000
314.88	3.33322500	1.65371300
315.89	3.32726500	1.64941300
316.90	3.32179300	1.64688700
317.91	3.31694700	1.64608300
318.93	3.31286000	1.64695400
319.96	3.30966700	1.64946600
321.00	3.30751000	1.65359400
322.04	3.30654800	1.65932200
323.09	3.30696100	1.66663400
324.14	3.30896200	1.67551200
325.21	3.31279800	1.68592500
326.28	3.31876200	1.69781600
327.35	3.32718900	1.71108600
328.44	3.33846000	1.72557000
329.53	3.35298800	1.74101500
330.63	3.37120000	1.75705700
331.73	3.39351100	1.77319800
332.85	3.42027800	1.78879500
333.97	3.45175600	1.80305700
335.10	3.48803900	1.81506300
336.23	3.52901500	1.82379800
337.37	3.57431000	1.82821200
338.53	3.62328600	1.82729400
339.69	3.67502000	1.82015700
340.85	3.72834900	1.80613000
342.03	3.78193600	1.78482900
343.21	3.83435300	1.75621500
344.40	3.88420200	1.72060100
345.60	3.93020700	1.67863500
346.81	3.97131600	1.63124100
348.03	4.00675600	1.57953500
349.25	4.03606700	1.52472400
350.49	4.05909400	1.46800600
351.73	4.07594200	1.41051300
352.98	4.08693500	1.35323000
354.24	4.09254300	1.29698000
355.51	4.09333600	1.24241100
356.79	4.08992100	1.18999600
358.08	4.08291300	1.14005700
359.38	4.07289600	1.09278400
360.68	4.05973500	1.04809500
362.00	4.04528400	1.00634500
363.33	4.02927900	0.96729500
364.66	4.01208900	0.93084900
366.01	3.99402900	0.89687800
367.36	3.97536100	0.86523800
368.73	3.95630500	0.83577700
370.11	3.93703800	0.80833700
371.49	3.91770600	0.78276600
372.89	3.89842600	0.75891600
374.29	3.87891300	0.73675800
375.71	3.85968000	0.71594100
377.14	3.84085500	0.69648600
378.58	3.82244400	0.67819900
380.03	3.80434500	0.66101400
381.49	3.78656700	0.64483400
382.97	3.76910300	0.62957300
384.45	3.75193000	0.61516100
385.95	3.73500800	0.60154100
387.45	3.71827400	0.58869000
388.97	3.70163200	0.57663300
390.50	3.68495200	0.56550600
392.05	3.66809400	0.55569500
393.60	3.65116300	0.54815900
395.17	3.63585900	0.54476900
396.75	3.62880500	0.54460300
398.35	3.63070100	0.53330100
399.95	3.62172200	0.51180200
401.57	3.60466100	0.49578500
403.20	3.58727100	0.48483700
404.85	3.57109200	0.47640800
406.51	3.55608100	0.46928300
408.18	3.54202600	0.46293300
409.87	3.52875100	0.45710600
411.57	3.51613200	0.45166900
413.28	3.50408200	0.44654300
415.01	3.49253600	0.44167800
416.76	3.48144600	0.43703800
418.52	3.47077500	0.43259500
420.29	3.46049300	0.42832900
422.08	3.45057700	0.42422200
423.88	3.44088400	0.42026000
425.70	3.43164800	0.41642600
427.54	3.42235100	0.41272000
429.39	3.41374400	0.40911100
431.25	3.40542300	0.40559900
433.14	3.39737700	0.40217400
435.04	3.38959600	0.39882700
436.95	3.38207300	0.39554900
438.89	3.37479900	0.39233400
440.84	3.36776700	0.38917400
442.80	3.36096900	0.38606000
444.79	3.35440000	0.38298700
446.79	3.34805400	0.37994800
448.82	3.34192400	0.37693700
450.86	3.33600600	0.37394600
452.91	3.33029400	0.37097000
454.99	3.32478300	0.36800300
457.09	3.31946900	0.36503800
459.20	3.31434800	0.36207000
461.34	3.30941400	0.35909300
463.50	3.30466400	0.35610000
465.67	3.30009500	0.35308600
467.87	3.29570200	0.35004400
470.09	3.29148100	0.34696900
472.32	3.28742900	0.34385300
474.58	3.28311300	0.34075900
476.87	3.27937400	0.33754700
479.17	3.27579200	0.33427500
481.50	3.27236400	0.33093600
483.84	3.26908600	0.32752300
486.22	3.26580300	0.32405200
488.61	3.26280800	0.32046800
491.03	3.25995000	0.31678500
493.47	3.25722600	0.31299400
495.94	3.25463100	0.30908600
498.43	3.25216000	0.30504900
500.95	3.24980600	0.30087300
503.49	3.24756400	0.29654600
506.06	3.24542600	0.29205400
508.66	3.24338400	0.28738300
511.28	3.24142900	0.28251700
513.93	3.23954800	0.27744000
516.60	3.23772800	0.27213200
519.31	3.23595200	0.26657200
522.04	3.23419800	0.26073700
524.80	3.23244100	0.25460100
527.60	3.23064500	0.24813700
530.42	3.22876500	0.24131500
533.27	3.22673900	0.23410200
536.15	3.22448500	0.22646900
539.07	3.22188300	0.21839200
542.01	3.21876200	0.20986900
544.99	3.21486900	0.20095300
548.00	3.20982000	0.19183300
551.05	3.20306500	0.18305100
554.12	3.19400800	0.17608300
557.24	3.18288700	0.17536900
560.39	3.17969700	0.18462200
563.57	3.20091300	0.18713300
566.79	3.21635700	0.15562500
570.05	3.20341200	0.12461400
573.34	3.18414900	0.10750300
576.68	3.16618200	0.09789900
580.05	3.15042100	0.09191200
583.46	3.13651000	0.08778600
586.91	3.12403000	0.08470600
590.41	3.11265500	0.08226100
593.94	3.10215400	0.08022900
597.52	3.09236000	0.07847900
601.14	3.08314800	0.07693100
604.81	3.07442700	0.07553400
608.52	3.06612700	0.07425200
612.27	3.05819100	0.07306200
616.08	3.05057600	0.07194500
619.93	3.04324700	0.07088900
623.82	3.03617400	0.06988400
627.77	3.02933200	0.06892200
631.77	3.02270100	0.06799800
635.82	3.01626400	0.06710700
639.92	3.01000500	0.06624600
644.08	3.00391300	0.06541000
648.29	2.99797400	0.06459800
652.55	2.99218100	0.06380700
656.88	2.98652200	0.06303700
661.25	2.98099200	0.06228400
665.69	2.97558200	0.06154800
670.19	2.97028700	0.06082800
674.75	2.96510100	0.06012200
679.37	2.95986700	0.05942500
684.06	2.95488700	0.05874600
688.81	2.95000200	0.05808000
693.62	2.94520700	0.05742500
698.51	2.94004300	0.05676800
703.46	2.93543100	0.05613600
708.49	2.93089800	0.05551400
713.58	2.92644300	0.05490100
718.75	2.92206100	0.05429800
724.00	2.91775200	0.05370400
729.32	2.91351200	0.05311800
734.73	2.90933900	0.05254000
740.21	2.90523200	0.05197000
745.78	2.90118800	0.05140800
751.43	2.89720600	0.05085400
757.16	2.89328400	0.05030600
762.99	2.88942100	0.04976600
768.90	2.88561400	0.04923200
774.91	2.88186300	0.04870500
781.01	2.87816600	0.04818500
787.21	2.87413600	0.04764400
793.51	2.87054500	0.04713600
799.90	2.86700500	0.04663400
806.41	2.86351400	0.04613700
813.02	2.86007100	0.04564700
819.74	2.85667500	0.04516100
826.57	2.85332600	0.04468100
833.51	2.85002200	0.04420700
840.58	2.84676200	0.04373700
847.76	2.84354500	0.04327200
855.07	2.84037200	0.04281200
862.51	2.83724000	0.04235700
870.07	2.83415000	0.04190700
877.77	2.83110000	0.04146100
885.61	2.82808900	0.04101900
893.59	2.82511800	0.04058200
901.71	2.82218500	0.04014900
909.98	2.81929000	0.03972100
918.41	2.81643200	0.03929600
926.99	2.81361000	0.03887500
935.74	2.81082400	0.03845800
944.65	2.80807400	0.03804500
953.73	2.80535800	0.03763600
962.99	2.80267700	0.03723000
972.43	2.80003000	0.03682800
982.06	2.79741600	0.03643000
991.88	2.79483500	0.03603500
1001.90	2.79228600	0.03564300
1012.12	2.78976900	0.03525500
1022.56	2.78728400	0.03487000
1033.21	2.78483000	0.03448800
1044.09	2.78240600	0.03410900
1055.19	2.78001300	0.03373300
1066.54	2.77765000	0.03336100
1078.13	2.77531600	0.03299100
1089.98	2.77301100	0.03262400
1102.09	2.77073600	0.03226000
1114.47	2.76848900	0.03189900
1127.14	2.76626900	0.03154000
1140.09	2.76407800	0.03118500
1153.35	2.76191400	0.03083200
1166.92	2.75977800	0.03048100
1180.81	2.75766800	0.03013300
1195.04	2.75558500	0.02978700
1209.61	2.75352900	0.02944400
1224.55	2.75149800	0.02910400
1239.85	2.74949300	0.02876600
1255.55	2.74751400	0.02843000
1271.64	2.74555900	0.02809600
1288.16	2.74363000	0.02776400
1305.11	2.74172600	0.02743500
1322.51	2.73984600	0.02710800
1340.38	2.73799000	0.02678300
1358.74	2.73615900	0.02646000
1377.61	2.73435100	0.02613900
1397.02	2.73256700	0.02582000
1416.97	2.73080600	0.02550400
1437.51	2.72906800	0.02518900
1458.65	2.72735400	0.02487500
1480.42	2.72566200	0.02456400
1502.85	2.72399200	0.02425500
1525.97	2.72234600	0.02394700
1549.81	2.72072100	0.02364100
1574.41	2.71911800	0.02333700
1599.81	2.71753800	0.02303500
1626.04	2.71597900	0.02273400
1653.14	2.71444100	0.02243500
1681.16	2.71292500	0.02213800
1710.14	2.71143000	0.02184200
1740.14	2.70995600	0.02154700
1771.22	2.70850300	0.02125500
