; From SOPRA S.A. http://www.sopra-sa.com/indices.htm
; Filename    Symbol               Range (nm)     Description
; ZNSETE10    ZnTe                196     1771    Zinc Selenium Telluride (100% Te)   *
; lambda/nm       n         k
196.80	2.43151600	1.73316400
197.19	2.42964300	1.71733800
197.59	2.42730200	1.70185100
197.98	2.42451000	1.68671700
198.38	2.42128500	1.67194700
198.77	2.41764500	1.65755300
199.17	2.41361000	1.64354400
199.57	2.40919600	1.62992800
199.98	2.40442100	1.61671500
200.38	2.39930200	1.60391100
200.79	2.39385800	1.59152300
201.19	2.38810300	1.57955700
201.60	2.38205600	1.56801700
202.01	2.37573200	1.55691000
202.42	2.36914700	1.54623900
202.84	2.36231600	1.53600700
203.25	2.35525500	1.52621800
203.67	2.34797900	1.51687500
204.09	2.34050200	1.50798000
204.51	2.33283700	1.49953600
204.93	2.32499900	1.49154400
205.36	2.31700200	1.48400800
205.78	2.30885800	1.47692700
206.21	2.30058100	1.47030500
206.64	2.29218100	1.46414200
207.07	2.28367500	1.45844100
207.51	2.27507200	1.45320100
207.94	2.26638500	1.44842500
208.38	2.25762600	1.44411500
208.82	2.24880600	1.44027100
209.26	2.23993800	1.43689600
209.70	2.23103400	1.43399000
210.14	2.22210400	1.43155600
210.59	2.21316100	1.42959500
211.04	2.20421700	1.42810900
211.49	2.19528300	1.42710100
211.94	2.18637300	1.42657100
212.39	2.17749700	1.42652300
212.85	2.16867000	1.42695900
213.31	2.15990200	1.42788100
213.77	2.15120900	1.42929000
214.23	2.14260300	1.43119100
214.69	2.13409800	1.43358500
215.16	2.12571000	1.43647500
215.63	2.11745100	1.43986300
216.10	2.10933900	1.44375200
216.57	2.10138900	1.44814400
217.04	2.09361800	1.45304100
217.52	2.08604500	1.45844500
218.00	2.07868500	1.46435800
218.48	2.07155900	1.47078100
218.96	2.06468700	1.47771600
219.44	2.05808800	1.48516200
219.93	2.05178500	1.49312000
220.42	2.04579900	1.50159000
220.91	2.04015500	1.51057000
221.40	2.03487500	1.52005700
221.90	2.02998700	1.53005000
222.39	2.02551400	1.54054200
222.89	2.02148500	1.55153100
223.40	2.01792800	1.56300800
223.90	2.01487100	1.57496500
224.41	2.01234400	1.58739300
224.92	2.01037700	1.60028000
225.43	2.00900200	1.61361300
225.94	2.00825000	1.62737700
226.46	2.00815500	1.64155300
226.98	2.00874700	1.65612200
227.50	2.01006100	1.67106000
228.02	2.01213000	1.68634400
228.54	2.01498500	1.70194300
229.07	2.01865900	1.71782700
229.60	2.02318400	1.73396200
230.13	2.02859100	1.75030800
230.67	2.03490800	1.76682600
231.21	2.04216400	1.78347000
231.75	2.05038200	1.80019200
232.29	2.05958700	1.81694100
232.84	2.06979800	1.83366100
233.38	2.08103100	1.85029600
233.93	2.09329700	1.86678200
234.49	2.10660400	1.88305600
235.04	2.12095500	1.89905300
235.60	2.13634400	1.91470500
236.16	2.15276500	1.92994200
236.73	2.17019900	1.94469500
237.29	2.18862500	1.95889500
237.86	2.20801400	1.97247500
238.43	2.22832800	1.98536800
239.01	2.24948000	1.99853600
239.58	2.27152600	2.00988700
240.16	2.29435000	2.02038000
240.75	2.31789500	2.02997000
241.33	2.34209400	2.03861900
241.92	2.36688300	2.04629600
242.51	2.39219300	2.05297800
243.11	2.41795800	2.05865200
243.71	2.44411300	2.06331300
244.31	2.47059600	2.06696100
244.91	2.49734900	2.06960500
245.52	2.52432300	2.07125900
246.12	2.55147200	2.07193900
246.74	2.57876200	2.07166700
247.35	2.60616400	2.07046000
247.97	2.63365700	2.06833600
248.59	2.66122600	2.06530900
249.22	2.68886300	2.06138600
249.84	2.71656100	2.05656900
250.48	2.74431700	2.05085200
251.11	2.77212800	2.04421700
251.75	2.79998500	2.03664400
252.39	2.82787800	2.02809800
253.03	2.85578200	2.01854500
253.68	2.88367200	2.00794000
254.33	2.91150900	1.99623800
254.98	2.93923700	1.98339500
255.64	2.96679500	1.96936500
256.30	2.99410400	1.95411300
256.96	3.02108000	1.93760700
257.63	3.04762200	1.91982700
258.30	3.07362500	1.90076600
258.98	3.09897800	1.88043200
259.65	3.12356500	1.85884900
260.34	3.14727200	1.83605500
261.02	3.16998900	1.81210500
261.71	3.19160600	1.78707200
262.40	3.21203000	1.76104200
263.10	3.23117000	1.73411400
263.80	3.24895700	1.70639800
264.50	3.26533100	1.67801000
265.21	3.28024700	1.64907700
265.92	3.29367900	1.61972400
266.63	3.30561500	1.59007900
267.35	3.31605800	1.56026800
268.08	3.32502600	1.53041100
268.80	3.33255000	1.50062500
269.53	3.33867100	1.47101600
270.27	3.34344100	1.44168500
271.01	3.34692000	1.41272200
271.75	3.34917500	1.38420400
272.49	3.35027500	1.35620500
273.25	3.35029600	1.32878200
274.00	3.34931200	1.30198600
274.76	3.34740100	1.27585800
275.52	3.34463800	1.25042900
276.29	3.34109700	1.22572500
277.06	3.33685200	1.20176200
277.84	3.33197200	1.17855100
278.62	3.32575400	1.15573400
279.40	3.31980500	1.13404700
280.19	3.31341100	1.11310900
280.99	3.30662600	1.09291200
281.78	3.29950400	1.07344500
282.59	3.29209100	1.05469300
283.39	3.28443300	1.03663900
284.21	3.27657100	1.01926600
285.02	3.26854100	1.00255200
285.84	3.26038000	0.98648000
286.67	3.25211700	0.97102600
287.50	3.24378100	0.95617000
288.34	3.23539900	0.94189000
289.18	3.22699200	0.92816300
290.02	3.21858300	0.91497000
290.87	3.21019100	0.90228700
291.73	3.20183000	0.89009500
292.59	3.19351800	0.87837200
293.46	3.18526700	0.86709900
294.33	3.17709000	0.85625500
295.20	3.16899600	0.84582400
296.08	3.16099500	0.83578400
296.97	3.15309500	0.82612000
297.86	3.14530300	0.81681500
298.76	3.13762600	0.80785100
299.66	3.13006800	0.79921300
300.57	3.12263400	0.79088500
301.48	3.11532800	0.78285400
302.40	3.10815400	0.77510500
303.33	3.10111400	0.76762500
304.26	3.09420900	0.76040100
305.19	3.08744300	0.75342000
306.14	3.08081600	0.74667200
307.08	3.07433000	0.74014400
308.04	3.06798400	0.73382600
309.00	3.06134600	0.72782200
309.96	3.05527800	0.72189300
310.93	3.04935200	0.71614600
311.91	3.04356700	0.71056900
312.90	3.03792300	0.70515400
313.89	3.03241900	0.69989400
314.88	3.02705500	0.69477900
315.89	3.02182900	0.68980300
316.90	3.01674100	0.68495700
317.91	3.01178900	0.68023600
318.93	3.00697400	0.67563100
319.96	3.00229200	0.67113700
321.00	2.99774400	0.66674700
322.04	2.99332700	0.66245500
323.09	2.98888800	0.65829300
324.14	2.98472900	0.65418000
325.21	2.98069800	0.65014800
326.28	2.97679400	0.64619200
327.35	2.97301400	0.64230600
328.44	2.96935700	0.63848600
329.53	2.96582300	0.63472700
330.63	2.96195200	0.63114400
331.73	2.95864700	0.62749500
332.85	2.95546000	0.62389300
333.97	2.95238900	0.62033400
335.10	2.94943100	0.61681400
336.23	2.94658600	0.61332800
337.37	2.94385200	0.60987300
338.53	2.94106900	0.60648600
339.69	2.93817800	0.60306500
340.85	2.93576600	0.59967900
342.03	2.93345800	0.59630800
343.21	2.93125300	0.59294800
344.40	2.92914900	0.58959600
345.60	2.92714400	0.58624700
346.81	2.92523600	0.58289900
348.03	2.92342400	0.57954600
349.25	2.92170600	0.57618700
350.49	2.92007900	0.57281600
351.73	2.91854300	0.56943000
352.98	2.91709400	0.56602600
354.24	2.91573000	0.56260000
355.51	2.91445000	0.55914800
356.79	2.91325000	0.55566700
358.08	2.91212800	0.55215100
359.38	2.91108100	0.54859900
360.68	2.91010600	0.54500500
362.00	2.90919900	0.54136600
363.33	2.90835600	0.53767700
364.66	2.90757400	0.53393500
366.01	2.90684800	0.53013600
367.36	2.90617200	0.52627500
368.73	2.90554000	0.52234900
370.11	2.90494500	0.51835300
371.49	2.90438000	0.51428300
372.89	2.90383600	0.51013600
374.29	2.90330000	0.50590900
375.71	2.90276100	0.50159900
377.14	2.90220200	0.49720500
378.58	2.90160500	0.49272500
380.03	2.90094700	0.48816400
381.49	2.90019900	0.48352800
382.97	2.89932600	0.47882700
384.45	2.89828200	0.47408300
385.95	2.89701000	0.46933300
387.45	2.89543700	0.46463700
388.97	2.89346800	0.46009600
390.50	2.89099000	0.45588800
392.05	2.88787400	0.45231700
393.60	2.88402600	0.44993100
395.17	2.87899000	0.45031300
396.75	2.87480500	0.45418700
398.35	2.87428700	0.46395700
399.95	2.88504300	0.47809000
401.57	2.91287400	0.48359800
403.20	2.94292400	0.46444400
404.85	2.95341100	0.43245300
406.51	2.94881700	0.40640100
408.18	2.93926600	0.38858200
409.87	2.93038100	0.37646000
411.57	2.92261400	0.36739200
413.28	2.91602200	0.36002300
415.01	2.91042700	0.35360900
416.76	2.90562900	0.34773200
418.52	2.90145900	0.34214700
420.29	2.89778000	0.33670200
422.08	2.89448400	0.33129900
423.88	2.89148100	0.32587200
425.70	2.88869400	0.32037300
427.54	2.88605800	0.31476700
429.39	2.88350700	0.30902900
431.25	2.88098300	0.30313700
433.14	2.87841900	0.29707800
435.04	2.87574700	0.29084500
436.95	2.87288500	0.28443700
438.89	2.86973900	0.27786700
440.84	2.86619200	0.27116400
442.80	2.86209700	0.26438800
444.79	2.85653000	0.25794800
446.79	2.85063400	0.25151700
448.82	2.84343500	0.24571300
450.86	2.83456500	0.24121700
452.91	2.82370700	0.23929200
454.99	2.81101500	0.24229300
457.09	2.79862500	0.25425500
459.20	2.79465600	0.27961300
461.34	2.81663700	0.31300400
463.50	2.87285400	0.32296500
465.67	2.92480300	0.28270400
467.87	2.93610300	0.22467700
470.09	2.92145200	0.18064800
472.32	2.89971100	0.15241900
474.58	2.87819300	0.13440800
476.87	2.85871500	0.12242200
479.17	2.84140800	0.11403100
481.50	2.82599400	0.10787300
483.84	2.81151900	0.10303500
486.22	2.79900700	0.09931700
488.61	2.78754400	0.09627600
491.03	2.77695400	0.09372100
493.47	2.76709700	0.09152800
495.94	2.75786300	0.08960900
498.43	2.74900000	0.08790000
500.95	2.74077000	0.08636200
503.49	2.73294700	0.08495900
506.06	2.72548600	0.08366700
508.66	2.71834500	0.08246600
511.28	2.71149200	0.08134200
513.93	2.70439400	0.08027600
516.60	2.69804600	0.07927300
519.31	2.69191400	0.07831800
522.04	2.68598100	0.07740500
524.80	2.68023000	0.07653000
527.60	2.67464800	0.07568700
530.42	2.66922300	0.07487300
533.27	2.66394400	0.07408600
536.15	2.65880300	0.07332200
539.07	2.65379000	0.07258100
542.01	2.64889800	0.07185900
544.99	2.64412000	0.07115500
548.00	2.63945000	0.07046800
551.05	2.63488200	0.06979600
554.12	2.63041100	0.06913900
557.24	2.62603200	0.06849500
560.39	2.62174200	0.06786400
563.57	2.61753500	0.06724500
566.79	2.61340900	0.06663700
570.05	2.60935900	0.06604000
573.34	2.60538300	0.06545200
576.68	2.60147900	0.06487400
580.05	2.59764200	0.06430600
583.46	2.59387000	0.06374500
586.91	2.59016200	0.06319300
590.41	2.58651500	0.06264900
593.94	2.58292700	0.06211300
597.52	2.57939500	0.06158400
601.14	2.57591900	0.06106200
604.81	2.57249500	0.06054600
608.52	2.56912400	0.06003700
612.27	2.56580300	0.05953500
616.08	2.56253000	0.05903800
619.93	2.55930500	0.05854800
623.82	2.55612500	0.05806300
627.77	2.55299000	0.05758300
631.77	2.54989900	0.05710900
635.82	2.54685000	0.05664000
639.92	2.54384200	0.05617700
644.08	2.54087500	0.05571800
648.29	2.53794600	0.05526400
652.55	2.53505700	0.05481500
656.88	2.53220400	0.05437000
661.25	2.52938800	0.05393000
665.69	2.52660800	0.05349400
670.19	2.52386300	0.05306200
674.75	2.52071200	0.05258900
679.37	2.51803500	0.05216600
684.06	2.51539200	0.05174700
688.81	2.51278100	0.05133200
693.62	2.51020100	0.05092000
698.51	2.50765300	0.05051300
703.46	2.50513400	0.05010900
708.49	2.50264500	0.04970800
713.58	2.50018500	0.04931100
718.75	2.49775400	0.04891800
724.00	2.49535100	0.04852700
729.32	2.49297500	0.04814000
734.73	2.49062700	0.04775700
740.21	2.48830500	0.04737600
745.78	2.48600900	0.04699900
751.43	2.48374000	0.04662500
757.16	2.48149500	0.04625400
762.99	2.47927500	0.04588500
768.90	2.47708000	0.04552000
774.91	2.47490900	0.04515700
781.01	2.47276200	0.04479800
787.21	2.47063800	0.04444100
793.51	2.46853700	0.04408700
799.90	2.46645900	0.04373500
806.41	2.46440300	0.04338600
813.02	2.46236900	0.04304000
819.74	2.46035700	0.04269600
826.57	2.45836700	0.04235500
833.51	2.45620900	0.04201500
840.58	2.45426300	0.04167800
847.76	2.45233700	0.04134400
855.07	2.45043100	0.04101300
862.51	2.44854500	0.04068400
870.07	2.44667800	0.04035700
877.77	2.44483200	0.04003200
885.61	2.44300400	0.03970900
893.59	2.44119600	0.03938900
901.71	2.43940600	0.03907100
909.98	2.43763500	0.03875500
918.41	2.43588300	0.03844100
926.99	2.43414800	0.03812900
935.74	2.43186500	0.03781500
944.65	2.43017100	0.03750700
953.73	2.42849400	0.03720100
962.99	2.42683500	0.03689700
972.43	2.42519200	0.03659500
982.06	2.42356700	0.03629500
991.88	2.42195800	0.03599700
1001.90	2.42036600	0.03570000
1012.12	2.41879000	0.03540500
1022.56	2.41723000	0.03511300
1033.21	2.41568600	0.03482100
1044.09	2.41415800	0.03453200
1055.19	2.41264600	0.03424400
1066.54	2.41114900	0.03395800
1078.13	2.40966700	0.03367300
1089.98	2.40820100	0.03339100
1102.09	2.40675000	0.03310900
1114.47	2.40531400	0.03283000
1127.14	2.40389300	0.03255200
1140.09	2.40248700	0.03227500
1153.35	2.40109500	0.03200000
1166.92	2.39971700	0.03172700
1180.81	2.39835400	0.03145500
1195.04	2.39700500	0.03118400
1209.61	2.39567000	0.03091500
1224.55	2.39434900	0.03064700
1239.85	2.39304200	0.03038100
1255.55	2.39174800	0.03011600
1271.64	2.39046800	0.02985200
1288.16	2.38920200	0.02959000
1305.11	2.38794900	0.02932900
1322.51	2.38670900	0.02906900
1340.38	2.38548200	0.02881100
1358.74	2.38426900	0.02855400
1377.61	2.38306800	0.02829800
1397.02	2.38188100	0.02804300
1416.97	2.38070600	0.02779000
1437.51	2.37954400	0.02753800
1458.65	2.37839400	0.02728700
1480.42	2.37725700	0.02703700
1502.85	2.37613200	0.02678800
1525.97	2.37502100	0.02654100
1549.81	2.37392000	0.02629400
1574.41	2.37283300	0.02604900
1599.81	2.37175700	0.02580500
1626.04	2.37069300	0.02556100
1653.14	2.36964200	0.02531900
1681.16	2.36860200	0.02507800
1710.14	2.36757300	0.02483800
1740.14	2.36655700	0.02459900
1771.22	2.36555200	0.02436100
