; From SOPRA S.A. http://www.sopra-sa.com/indices.htm
; Filename    Symbol               Range (nm)     Description
; ZNSETE9     ZnSe0.1Te0.9        196     1771    Zinc Selenium Telluride (90% Te)    *
; lambda/nm       n         k
196.80	2.46493400	1.97519200
197.19	2.46975500	1.95604800
197.59	2.47390500	1.93702300
197.98	2.47739500	1.91814800
198.38	2.48024200	1.89944700
198.77	2.48246000	1.88094700
199.17	2.48406800	1.86267300
199.57	2.48508300	1.84464400
199.98	2.48552400	1.82688400
200.38	2.48540900	1.80941000
200.79	2.48476000	1.79224200
201.19	2.48359400	1.77539600
201.60	2.48193300	1.75888600
202.01	2.47979600	1.74272600
202.42	2.47720400	1.72692900
202.84	2.47417700	1.71150700
203.25	2.47073500	1.69646800
203.67	2.46689700	1.68182200
204.09	2.46268400	1.66757800
204.51	2.45811400	1.65374000
204.93	2.45320700	1.64031700
205.36	2.44798100	1.62731300
205.78	2.44245300	1.61473000
206.21	2.43664300	1.60257500
206.64	2.43056500	1.59084900
207.07	2.42423800	1.57955500
207.51	2.41767700	1.56869400
207.94	2.41089900	1.55826700
208.38	2.40391700	1.54827600
208.82	2.39674800	1.53872100
209.26	2.38940500	1.52960300
209.70	2.38190200	1.52092000
210.14	2.37425200	1.51267200
210.59	2.36646800	1.50486000
211.04	2.35856300	1.49748100
211.49	2.35054800	1.49053700
211.94	2.34243600	1.48402500
212.39	2.33423700	1.47794400
212.85	2.32596300	1.47229400
213.31	2.31762400	1.46707400
213.77	2.30923100	1.46228300
214.23	2.30079300	1.45791900
214.69	2.29232100	1.45398300
215.16	2.28382500	1.45047400
215.63	2.27531300	1.44739000
216.10	2.26679700	1.44473200
216.57	2.25828400	1.44249900
217.04	2.24978400	1.44069200
217.52	2.24130700	1.43931000
218.00	2.23286200	1.43835300
218.48	2.22445800	1.43782300
218.96	2.21610500	1.43771900
219.44	2.20781100	1.43804200
219.93	2.19958800	1.43879400
220.42	2.19144400	1.43997500
220.91	2.18339100	1.44158700
221.40	2.17543800	1.44363000
221.90	2.16759600	1.44610800
222.39	2.15987700	1.44902100
222.89	2.15229100	1.45237200
223.40	2.14485200	1.45616200
223.90	2.13757100	1.46039200
224.41	2.13046200	1.46506600
224.92	2.12353800	1.47018500
225.43	2.11681400	1.47575100
225.94	2.11030500	1.48176600
226.46	2.10402600	1.48823100
226.98	2.09799500	1.49514900
227.50	2.09222800	1.50251900
228.02	2.08674400	1.51034300
228.54	2.08156200	1.51862100
229.07	2.07670300	1.52735300
229.60	2.07218700	1.53653900
230.13	2.06803700	1.54617600
230.67	2.06427600	1.55626200
231.21	2.06092800	1.56679400
231.75	2.05801900	1.57776700
232.29	2.05557500	1.58917500
232.84	2.05362400	1.60101200
233.38	2.05219500	1.61326800
233.93	2.05131600	1.62593100
234.49	2.05101800	1.63899100
235.04	2.05133200	1.65243100
235.60	2.05229000	1.66623500
236.16	2.05392500	1.68038200
236.73	2.05626900	1.69484900
237.29	2.05935400	1.70961100
237.86	2.06321400	1.72463800
238.43	2.06788000	1.73989800
239.01	2.07338500	1.75535400
239.58	2.07975700	1.77096600
240.16	2.08702500	1.78668900
240.75	2.09521700	1.80247800
241.33	2.10435300	1.81827700
241.92	2.11445600	1.83403300
242.51	2.12554100	1.84968400
243.11	2.13761900	1.86516800
243.71	2.15069700	1.88041800
244.31	2.16477300	1.89536600
244.91	2.17984200	1.90993900
245.52	2.19589000	1.92406600
246.12	2.21289300	1.93767300
246.74	2.23082300	1.95069000
247.35	2.24964100	1.96304500
247.97	2.26929900	1.97467400
248.59	2.28965400	1.98651700
249.22	2.31083400	1.99652600
249.84	2.33266500	2.00564200
250.48	2.35507300	2.01383100
251.11	2.37797900	2.02106300
251.75	2.40129800	2.02732200
252.39	2.42494800	2.03260500
253.03	2.44884500	2.03692100
253.68	2.47291500	2.04028800
254.33	2.49709000	2.04274100
254.98	2.52130300	2.04431900
255.64	2.54550800	2.04507400
256.30	2.56966400	2.04505900
256.96	2.59375100	2.04433500
257.63	2.61775900	2.04295900
258.30	2.64169000	2.04098800
258.98	2.66556500	2.03847000
259.65	2.68941400	2.03544500
260.34	2.71327600	2.03194200
261.02	2.73720000	2.02797600
261.71	2.76123700	2.02354500
262.40	2.78544000	2.01863300
263.10	2.80985700	2.01320600
263.80	2.83453400	2.00721600
264.50	2.85950600	2.00059700
265.21	2.88479200	1.99327500
265.92	2.91040000	1.98516100
266.63	2.93631700	1.97616200
267.35	2.96251400	1.96618000
268.08	2.98894100	1.95511800
268.80	3.01552600	1.94288100
269.53	3.04217900	1.92938300
270.27	3.06879100	1.91455200
271.01	3.09523800	1.89832900
271.75	3.12138300	1.88067300
272.49	3.14707900	1.86156500
273.25	3.17217300	1.84100600
274.00	3.19650900	1.81902500
274.76	3.21993800	1.79567000
275.52	3.24231400	1.77101300
276.29	3.26350200	1.74514800
277.06	3.28338400	1.71818600
277.84	3.30185700	1.69025400
278.62	3.31883500	1.66149100
279.40	3.33425800	1.63204300
280.19	3.34808200	1.60206200
280.99	3.36028600	1.57170200
281.78	3.37086800	1.54111300
282.59	3.37984500	1.51044100
283.39	3.38725000	1.47982200
284.21	3.39313100	1.44938500
285.02	3.39754900	1.41924700
285.84	3.40057400	1.38951400
286.67	3.40228300	1.36027600
287.50	3.40276000	1.33161200
288.34	3.40209100	1.30359200
289.18	3.40036400	1.27626600
290.02	3.39766900	1.24968300
290.87	3.39409100	1.22387300
291.73	3.38895300	1.19852700
292.59	3.38387100	1.17434000
293.46	3.37815100	1.15097100
294.33	3.37186900	1.12842400
295.20	3.36509400	1.10669400
296.08	3.35789100	1.08576900
296.97	3.35032000	1.06564000
297.86	3.34243700	1.04628800
298.76	3.33429300	1.02769500
299.66	3.32593600	1.00983900
300.57	3.31740900	0.99269800
301.48	3.30874900	0.97624800
302.40	3.29999300	0.96046400
303.33	3.29117200	0.94532300
304.26	3.28231400	0.93079800
305.19	3.27344600	0.91686500
306.14	3.26459000	0.90349800
307.08	3.25576700	0.89067400
308.04	3.24699400	0.87836800
309.00	3.23828800	0.86655900
309.96	3.22966300	0.85522000
310.93	3.22113100	0.84433300
311.91	3.21270300	0.83387500
312.90	3.20438800	0.82382500
313.89	3.19619500	0.81416500
314.88	3.18813100	0.80487400
315.89	3.18020100	0.79593500
316.90	3.17241100	0.78733100
317.91	3.16476500	0.77904400
318.93	3.15726600	0.77105800
319.96	3.14991800	0.76335900
321.00	3.14272300	0.75593200
322.04	3.13568200	0.74876200
323.09	3.12879700	0.74183600
324.14	3.12206900	0.73514100
325.21	3.11549800	0.72866600
326.28	3.10908400	0.72239700
327.35	3.10282800	0.71632600
328.44	3.09672800	0.71043900
329.53	3.09078500	0.70472800
330.63	3.08456200	0.69929200
331.73	3.07892400	0.69390400
332.85	3.07344000	0.68866200
333.97	3.06810800	0.68355900
335.10	3.06292700	0.67858700
336.23	3.05789700	0.67373600
337.37	3.05301500	0.66900000
338.53	3.04827900	0.66437100
339.69	3.04324600	0.65996100
340.85	3.03878900	0.65552800
342.03	3.03447200	0.65118200
343.21	3.03029600	0.64691700
344.40	3.02610600	0.64276200
345.60	3.02220100	0.63863900
346.81	3.01842900	0.63457800
348.03	3.01463400	0.63061600
349.25	3.01075900	0.62665100
350.49	3.00737500	0.62274500
351.73	3.00411600	0.61888000
352.98	3.00098100	0.61505000
354.24	2.99796700	0.61125100
355.51	2.99507100	0.60747600
356.79	2.99229200	0.60372200
358.08	2.98962700	0.59998300
359.38	2.98707300	0.59625500
360.68	2.98462800	0.59253300
362.00	2.98229000	0.58881100
363.33	2.98005400	0.58508600
364.66	2.97791900	0.58135200
366.01	2.97588000	0.57760500
367.36	2.97393500	0.57384100
368.73	2.97207900	0.57005300
370.11	2.97030900	0.56623800
371.49	2.96861800	0.56239100
372.89	2.96700300	0.55850700
374.29	2.96545800	0.55458200
375.71	2.96397600	0.55061100
377.14	2.96254900	0.54658800
378.58	2.96116900	0.54251100
380.03	2.95982500	0.53837500
381.49	2.95850600	0.53417700
382.97	2.95719700	0.52991400
384.45	2.95588200	0.52558500
385.95	2.95453800	0.52119100
387.45	2.95314000	0.51673500
388.97	2.95165500	0.51222500
390.50	2.95004300	0.50768000
392.05	2.94825100	0.50312600
393.60	2.94621000	0.49861400
395.17	2.94383500	0.49422800
396.75	2.94101700	0.49011300
398.35	2.93762700	0.48652800
399.95	2.93354600	0.48393600
401.57	2.92827700	0.48370300
403.20	2.92345800	0.48653300
404.85	2.92126500	0.49489800
406.51	2.92865600	0.50853300
408.18	2.95304600	0.51639300
409.87	2.98269900	0.50057700
411.57	2.99377100	0.46990300
413.28	2.98902200	0.44465300
415.01	2.97919800	0.42784000
416.76	2.97011300	0.41677200
418.52	2.96224500	0.40874200
420.29	2.95562000	0.40238100
422.08	2.95004300	0.39695900
423.88	2.94531000	0.39207300
425.70	2.94125500	0.38748900
427.54	2.93774900	0.38306600
429.39	2.93469100	0.37871400
431.25	2.93200600	0.37437200
433.14	2.92963100	0.36999800
435.04	2.92751600	0.36555900
436.95	2.92562200	0.36103000
438.89	2.92391300	0.35639300
440.84	2.92235600	0.35162700
442.80	2.92092400	0.34671900
444.79	2.91958900	0.34165400
446.79	2.91832400	0.33641700
448.82	2.91710100	0.33099700
450.86	2.91589000	0.32537900
452.91	2.91465800	0.31955200
454.99	2.91336800	0.31350400
457.09	2.91197500	0.30722600
459.20	2.91042700	0.30071100
461.34	2.90865900	0.29395500
463.50	2.90659000	0.28696300
465.67	2.90411900	0.27975400
467.87	2.90111200	0.27236900
470.09	2.89673000	0.26514900
472.32	2.89199600	0.25779000
474.58	2.88600600	0.25080500
476.87	2.87838000	0.24475200
479.17	2.86872300	0.24069900
481.50	2.85693100	0.24069900
483.84	2.84439600	0.24849500
486.22	2.83767100	0.26906500
488.61	2.85345600	0.30014200
491.03	2.90436000	0.31322600
493.47	2.95608300	0.27645300
495.94	2.96768900	0.21915900
498.43	2.95241300	0.17563100
500.95	2.93027500	0.14808500
503.49	2.90857000	0.13070600
506.06	2.88902800	0.11921900
508.66	2.87171000	0.11120500
511.28	2.85566500	0.10518700
513.93	2.84139700	0.10070400
516.60	2.82888700	0.09714300
519.31	2.81741700	0.09422100
522.04	2.80681100	0.09175900
524.80	2.79692900	0.08963800
527.60	2.78766400	0.08777500
530.42	2.77892900	0.08611300
533.27	2.77065300	0.08461000
536.15	2.76278200	0.08323500
539.07	2.75526700	0.08196500
542.01	2.74807200	0.08078100
544.99	2.74116200	0.07967100
548.00	2.73451200	0.07862200
551.05	2.72809600	0.07762700
554.12	2.72189600	0.07667800
557.24	2.71589300	0.07576900
560.39	2.71007300	0.07489600
563.57	2.70442200	0.07405500
566.79	2.69892800	0.07324100
570.05	2.69358100	0.07245400
573.34	2.68837200	0.07168900
576.68	2.68329100	0.07094600
580.05	2.67833300	0.07022100
583.46	2.67348800	0.06951500
586.91	2.66875300	0.06882500
590.41	2.66412000	0.06815000
593.94	2.65958600	0.06748900
597.52	2.65514400	0.06684200
601.14	2.65079100	0.06620700
604.81	2.64652400	0.06558300
608.52	2.64233700	0.06497100
612.27	2.63822800	0.06436900
616.08	2.63419500	0.06377800
619.93	2.63023300	0.06319500
623.82	2.62633900	0.06262200
627.77	2.62251300	0.06205700
631.77	2.61875100	0.06150000
635.82	2.61505100	0.06095200
639.92	2.61141000	0.06041000
644.08	2.60782800	0.05987700
648.29	2.60430100	0.05935000
652.55	2.60082900	0.05883000
656.88	2.59741000	0.05831600
661.25	2.59404200	0.05780900
665.69	2.59072400	0.05730700
670.19	2.58745300	0.05681200
674.75	2.58423000	0.05632200
679.37	2.58105300	0.05583800
684.06	2.57792000	0.05536000
688.81	2.57483000	0.05488600
693.62	2.57178300	0.05441800
698.51	2.56877700	0.05395500
703.46	2.56581100	0.05349600
708.49	2.56288500	0.05304200
713.58	2.55999700	0.05259300
718.75	2.55714700	0.05214800
724.00	2.55390000	0.05166500
729.32	2.55112400	0.05122900
734.73	2.54838300	0.05079700
740.21	2.54567600	0.05037000
745.78	2.54300400	0.04994600
751.43	2.54036400	0.04952700
757.16	2.53775700	0.04911100
762.99	2.53518200	0.04869900
768.90	2.53263800	0.04829000
774.91	2.53012500	0.04788600
781.01	2.52764100	0.04748400
787.21	2.52518800	0.04708600
793.51	2.52276300	0.04669200
799.90	2.52036700	0.04630100
806.41	2.51799900	0.04591300
813.02	2.51565800	0.04552800
819.74	2.51334500	0.04514700
826.57	2.51105900	0.04476800
833.51	2.50879800	0.04439300
840.58	2.50656300	0.04402000
847.76	2.50435400	0.04365100
855.07	2.50217000	0.04328400
862.51	2.50001100	0.04292000
870.07	2.49769100	0.04255800
877.77	2.49558200	0.04219900
885.61	2.49349600	0.04184400
893.59	2.49143400	0.04149100
901.71	2.48939500	0.04114000
909.98	2.48737800	0.04079200
918.41	2.48538400	0.04044700
926.99	2.48341100	0.04010400
935.74	2.48146000	0.03976300
944.65	2.47953100	0.03942500
953.73	2.47762300	0.03908900
962.99	2.47573600	0.03875600
972.43	2.47331300	0.03842100
982.06	2.47147200	0.03809200
991.88	2.46965100	0.03776500
1001.90	2.46785000	0.03744100
1012.12	2.46606800	0.03711800
1022.56	2.46430600	0.03679800
1033.21	2.46256300	0.03648000
1044.09	2.46083900	0.03616300
1055.19	2.45913300	0.03584900
1066.54	2.45744600	0.03553700
1078.13	2.45577700	0.03522700
1089.98	2.45412700	0.03491800
1102.09	2.45249400	0.03461200
1114.47	2.45087900	0.03430700
1127.14	2.44928200	0.03400500
1140.09	2.44770200	0.03370400
1153.35	2.44613900	0.03340400
1166.92	2.44459400	0.03310700
1180.81	2.44306500	0.03281100
1195.04	2.44155300	0.03251700
1209.61	2.44005700	0.03222500
1224.55	2.43857800	0.03193400
1239.85	2.43711500	0.03164500
1255.55	2.43566900	0.03135700
1271.64	2.43423800	0.03107200
1288.16	2.43282300	0.03078700
1305.11	2.43142400	0.03050400
1322.51	2.43004000	0.03022300
1340.38	2.42867200	0.02994300
1358.74	2.42731900	0.02966500
1377.61	2.42598100	0.02938800
1397.02	2.42465900	0.02911200
1416.97	2.42335100	0.02883800
1437.51	2.42205800	0.02856600
1458.65	2.42078000	0.02829400
1480.42	2.41951600	0.02802400
1502.85	2.41826700	0.02775600
1525.97	2.41703200	0.02748800
1549.81	2.41581200	0.02722200
1574.41	2.41460500	0.02695700
1599.81	2.41341300	0.02669400
1626.04	2.41223400	0.02643100
1653.14	2.41107000	0.02617000
1681.16	2.40991900	0.02591000
1710.14	2.40878200	0.02565100
1740.14	2.40765800	0.02539400
1771.22	2.40654800	0.02513700
